timestamps,TP9,AF7,AF8,TP10,Right AUX,label
1533222559.839,59.105,28.320,15.137,12.207,54.199,0
1533222559.843,62.012,30.273,43.945,11.719,79.102,0
1533222559.847,44.922,30.273,-97.656,11.230,32.715,0
1533222559.851,28.809,27.832,-110.352,9.277,29.785,0
1533222559.855,36.156,28.809,-73.242,11.230,50.781,0
1533222559.859,57.617,36.133,-17.090,16.113,37.109,0
1533222559.862,74.219,38.574,42.480,27.832,20.020,0
1533222559.866,57.129,33.691,-30.273,34.180,28.320,0
1533222559.870,23.949,29.785,-101.074,13.184,64.941,0
1533222559.874,20.020,33.203,-92.285,9.277,40.527,0
1533222559.878,41.504,33.203,-24.902,15.625,-0.488,0
1533222559.882,51.758,29.785,68.359,14.160,37.598,0
1533222559.886,47.852,34.180,-29.297,21.973,55.176,0
1533222559.890,34.180,36.133,-122.070,17.578,59.570,0
1533222559.894,33.691,34.668,-84.473,12.207,81.543,0
1533222559.898,52.246,36.133,-20.996,20.508,-8.789,0
1533222559.901,62.012,40.039,21.973,21.973,-58.594,0
1533222559.905,51.781,36.133,-81.055,14.648,-9.277,0
1533222559.909,38.574,34.668,-115.234,16.113,37.598,0
1533222559.913,45.410,44.434,-64.941,21.484,18.555,0
1533222559.917,59.570,41.992,21.973,23.438,21.973,0
1533222559.921,68.359,37.598,62.012,21.484,69.824,0
1533222559.925,63.965,48.340,-47.852,20.508,33.203,0
1533222559.929,52.734,52.246,-147.949,20.020,14.160,0
1533222559.933,58.594,53.223,-100.586,18.555,10.742,0
1533222559.937,69.336,53.711,-47.852,21.484,28.320,0
1533222559.941,74.219,49.316,10.742,25.879,12.695,0
1533222559.944,73.730,47.363,24.414,30.273,41.504,0
1533222559.948,62.012,42.969,-127.441,32.227,83.008,0
1533222559.952,54.199,39.062,-127.930,33.203,85.938,0
1533222559.956,69.336,39.551,-56.152,30.762,62.988,0
1533222559.960,91.309,41.016,34.668,34.180,38.086,0
1533222559.964,95.332,39.551,36.621,37.598,-5.859,0
1533222559.968,71.777,39.062,-101.562,36.133,2.441,0
1533222559.972,72.754,37.109,-107.422,35.156,-1.465,0
1533222559.976,87.891,38.086,-22.461,31.250,1.953,0
1533222559.980,103.027,41.504,39.551,32.715,6.348,0
1533222559.984,102.539,34.668,7.812,34.180,3.418,0
1533222559.987,80.078,38.086,-97.168,36.133,41.016,0
1533222559.991,77.637,50.781,-90.820,44.434,-14.160,0
1533222559.995,94.145,61.523,-24.414,50.781,15.137,0
1533222559.999,107.910,66.406,32.227,58.105,87.891,0
1533222560.003,107.910,60.547,51.758,56.152,77.637,0
1533222560.007,96.680,62.012,-34.668,48.828,53.711,0
1533222560.011,86.426,69.336,-73.242,46.875,19.043,0
1533222560.015,82.379,64.453,-64.453,42.480,32.227,0
1533222560.019,105.957,62.012,-4.883,43.945,65.430,0
1533222560.023,113.770,69.336,81.543,49.805,25.391,0
1533222560.026,98.145,70.801,-29.297,55.664,28.320,0
1533222560.030,83.008,64.941,-80.078,49.316,57.129,0
1533222560.034,89.844,62.012,-66.406,40.039,16.602,0
1533222560.038,107.422,62.500,15.625,42.969,9.766,0
1533222560.042,110.352,54.688,41.016,45.898,-4.395,0
1533222560.046,88.379,46.387,-95.215,38.086,-34.668,0
1533222560.050,63.477,41.504,-116.211,32.715,-6.836,0
1533222560.054,64.941,37.598,-58.594,29.785,-8.789,0
1533222560.058,85.449,33.203,-23.438,28.320,-36.621,0
1533222560.062,88.379,29.785,41.016,30.762,-45.898,0
1533222560.066,72.754,28.809,-20.020,26.855,-12.695,0
1533222560.069,64.941,28.320,-128.906,21.973,25.879,0
1533222560.073,60.547,21.973,-99.121,18.555,60.059,0
1533222560.077,62.500,20.020,-14.160,14.648,80.566,0
1533222560.081,72.754,22.461,28.320,16.602,30.762,0
1533222560.085,58.105,19.043,-50.293,15.137,2.930,0
1533222560.089,40.527,16.113,-156.250,11.719,-30.762,0
1533222560.093,47.363,18.066,-117.188,10.742,-30.762,0
1533222560.097,57.617,17.090,-49.316,6.836,22.949,0
1533222560.101,69.824,16.602,20.996,10.742,-0.488,0
1533222560.105,70.312,18.066,34.180,15.625,-2.930,0
1533222560.108,53.223,20.996,-94.727,14.648,37.109,0
1533222560.112,45.410,17.578,-109.863,14.648,19.043,0
1533222560.116,57.617,17.090,-26.855,14.648,2.441,0
1533222560.120,71.289,23.438,41.992,20.508,42.480,0
1533222560.124,67.871,22.461,-21.484,19.043,7.324,0
1533222560.128,44.434,24.414,-111.328,13.672,-14.648,0
1533222560.132,34.668,31.250,-91.797,9.277,60.059,0
1533222560.136,54.688,31.250,-51.758,7.812,52.734,0
1533222560.140,67.871,27.344,11.719,9.766,24.414,0
1533222560.144,62.012,21.484,13.184,7.324,57.617,0
1533222560.148,45.410,25.391,-75.684,9.766,66.895,0
1533222560.151,35.645,34.668,-102.539,12.207,38.574,0
1533222560.155,40.039,32.715,-83.008,8.789,41.016,0
1533222560.159,55.664,31.250,7.324,12.207,37.109,0
1533222560.163,60.547,35.156,36.621,17.578,36.133,0
1533222560.167,46.387,33.691,-109.863,13.184,-17.090,0
1533222560.171,31.250,29.297,-94.727,0.977,-75.195,0
1533222560.175,36.133,30.273,-49.805,4.395,75.195,0
1533222560.179,58.594,32.227,-0.488,13.672,134.766,0
1533222560.183,63.965,24.902,56.641,25.391,32.227,0
1533222560.187,57.129,20.508,-97.168,35.645,-3.906,0
1533222560.191,44.922,33.203,-113.770,19.043,23.438,0
1533222560.194,44.434,40.039,-45.898,0.977,28.809,0
1533222560.198,66.895,39.062,28.320,4.883,0.488,0
1533222560.202,79.102,39.551,49.805,11.230,-5.859,0
1533222560.206,67.871,39.551,-58.105,7.324,46.387,0
1533222560.210,59.082,42.480,-107.910,12.207,80.566,0
1533222560.214,69.824,41.504,-84.473,20.508,73.730,0
1533222560.218,91.309,41.992,-15.137,27.344,52.734,0
1533222560.222,92.773,43.457,63.477,28.809,48.828,0
1533222560.226,74.219,38.574,-8.789,21.973,47.852,0
1533222560.230,71.289,35.156,-108.398,29.297,89.844,0
1533222560.233,80.566,33.691,-100.098,41.016,43.945,0
1533222560.237,93.262,28.809,-30.762,40.039,6.836,0
1533222560.241,95.703,28.809,61.523,40.527,45.898,0
1533222560.245,89.844,30.762,9.277,43.945,56.152,0
1533222560.249,75.684,29.785,-115.723,40.039,20.996,0
1533222560.253,74.707,35.645,-86.426,39.062,0.488,0
1533222560.257,89.355,33.691,12.695,41.504,3.906,0
1533222560.261,91.309,26.855,66.406,41.504,0.000,0
1533222560.265,90.332,26.367,-8.789,38.086,32.715,0
1533222560.269,79.102,28.809,-115.234,32.227,12.695,0
1533222560.273,67.871,27.344,-75.195,26.367,37.598,0
1533222560.276,76.172,27.344,4.883,26.367,15.137,0
1533222560.280,92.285,27.344,36.621,31.738,-41.992,0
1533222560.284,91.309,24.414,-2.441,33.203,-43.945,0
1533222560.288,70.312,21.484,-76.660,29.785,-34.668,0
1533222560.292,66.895,22.949,-63.477,31.250,-74.219,0
1533222560.296,72.266,24.902,-48.828,33.691,-42.969,0
1533222560.300,77.637,23.926,38.086,32.715,28.809,0
1533222560.304,74.219,24.414,73.242,31.250,17.090,0
1533222560.308,58.594,26.855,-85.938,31.738,-5.859,0
1533222560.312,48.828,24.902,-82.520,30.762,25.391,0
1533222560.316,56.152,24.902,-26.367,30.273,36.621,0
1533222560.319,84.473,25.879,50.781,38.086,27.832,0
1533222560.323,84.473,23.926,26.855,40.039,10.254,0
1533222560.327,61.523,21.484,-95.703,32.715,-29.297,0
1533222560.331,57.129,21.973,-71.289,27.344,0.977,0
1533222560.335,63.965,25.391,-25.879,25.879,24.414,0
1533222560.339,81.543,22.949,53.223,31.250,48.828,0
1533222560.343,89.355,21.484,123.047,38.086,107.422,0
1533222560.347,75.684,27.344,-47.363,39.551,77.637,0
1533222560.351,64.941,26.367,-94.238,33.203,71.289,0
1533222560.355,69.824,24.414,-65.430,27.832,52.734,0
1533222560.358,86.914,28.320,19.043,31.250,30.762,0
1533222560.362,88.867,26.367,61.035,30.762,47.852,0
1533222560.366,67.383,31.250,-37.109,31.738,43.457,0
1533222560.370,50.781,28.809,-95.703,27.832,54.688,0
1533222560.374,54.199,17.090,-98.633,20.020,-9.766,0
1533222560.378,71.289,19.531,25.391,22.949,43.457,0
1533222560.382,73.242,18.066,80.078,24.902,69.824,0
1533222560.386,55.176,15.137,-12.207,22.949,41.504,0
1533222560.390,47.852,19.531,-59.570,22.949,77.148,0
1533222560.394,54.199,22.461,-73.730,24.414,13.672,0
1533222560.398,73.242,22.461,16.602,31.250,-15.137,0
1533222560.401,83.496,18.555,86.914,45.410,29.297,0
1533222560.405,71.777,13.184,-19.043,51.758,44.434,0
1533222560.409,47.852,25.391,-85.449,34.668,17.090,0
1533222560.413,36.621,35.156,-28.809,20.020,12.207,0
1533222560.417,62.500,31.738,49.805,27.832,68.848,0
1533222560.421,92.773,39.062,68.359,41.504,28.809,0
1533222560.425,84.961,39.062,34.180,41.992,-25.879,0
1533222560.429,63.965,33.691,-22.461,35.156,-4.883,0
1533222560.433,66.406,39.551,-6.836,37.598,41.992,0
1533222560.437,80.078,38.574,0.000,36.621,60.547,0
1533222560.441,97.168,32.227,102.051,37.109,31.738,0
1533222560.444,100.586,32.715,127.441,43.457,-20.020,0
1533222560.448,79.102,32.715,-19.043,37.598,-21.973,0
1533222560.452,71.289,33.691,-1.465,35.645,46.387,0
1533222560.456,83.008,36.133,58.105,33.691,67.871,0
1533222560.460,93.262,35.156,136.719,36.621,5.859,0
1533222560.464,90.332,28.320,84.961,39.062,31.738,0
1533222560.468,72.754,29.297,-71.289,33.691,31.250,0
1533222560.472,65.430,36.621,-22.949,31.250,-8.301,0
1533222560.476,85.449,31.250,23.438,31.738,12.695,0
1533222560.480,106.934,27.832,92.285,36.133,75.684,0
1533222560.483,107.422,30.762,117.188,38.574,2.930,0
1533222560.487,91.309,31.250,-20.508,36.621,-56.152,0
1533222560.491,79.102,30.762,-37.598,31.250,50.781,0
1533222560.495,88.867,34.668,-25.879,34.180,27.344,0
1533222560.499,98.633,28.809,66.895,37.109,3.906,0
1533222560.503,96.680,27.832,65.430,39.062,23.926,0
1533222560.507,85.938,36.621,-37.109,39.062,51.758,0
1533222560.511,65.918,34.180,-72.754,35.156,59.570,0
1533222560.515,76.172,36.621,-53.223,36.621,20.508,0
1533222560.519,98.145,39.551,68.848,38.574,-0.488,0
1533222560.523,105.957,41.504,83.984,41.504,-20.996,0
1533222560.526,102.539,43.457,-34.180,41.016,-11.230,0
1533222560.530,87.402,41.992,-66.895,37.109,23.926,0
1533222560.534,86.426,45.898,-60.059,34.668,-12.695,0
1533222560.538,102.539,47.852,15.137,36.133,18.066,0
1533222560.542,104.492,45.898,99.121,36.133,24.414,0
1533222560.546,97.656,48.340,13.184,37.109,-17.578,0
1533222560.550,84.961,47.852,-75.684,37.598,51.270,0
1533222560.554,76.660,41.016,-55.176,29.297,55.176,0
1533222560.558,90.820,33.203,51.270,32.715,-8.301,0
1533222560.562,100.098,28.809,70.801,42.969,-41.016,0
1533222560.566,95.215,30.273,13.672,45.410,23.926,0
1533222560.569,90.332,37.598,-46.875,52.734,62.988,0
1533222560.573,79.102,37.598,-26.855,43.945,36.621,0
1533222560.577,80.566,34.180,-4.883,24.902,43.945,0
1533222560.581,94.238,36.133,67.383,29.297,60.059,0
1533222560.585,85.449,38.086,28.809,28.809,18.555,0
1533222560.589,74.707,42.480,-81.055,26.855,-25.391,0
1533222560.593,76.660,44.922,-40.039,30.273,0.977,0
1533222560.597,95.703,47.363,50.293,32.715,14.648,0
1533222560.601,106.445,47.852,109.375,37.598,34.668,0
1533222560.605,101.074,48.828,14.648,36.133,23.926,0
1533222560.608,89.844,48.828,-104.492,33.203,-7.324,0
1533222560.612,79.102,46.387,-53.223,31.738,14.160,0
1533222560.616,87.891,48.340,57.129,36.133,15.625,0
1533222560.620,100.586,45.898,120.117,39.551,38.086,0
1533222560.624,95.703,45.410,51.270,39.062,75.195,0
1533222560.628,82.520,48.828,-76.660,37.109,-17.090,0
1533222560.632,73.242,47.852,-30.762,30.762,-39.551,0
1533222560.636,80.078,49.316,-20.020,31.738,-2.441,0
1533222560.640,87.402,48.828,51.758,35.645,-1.465,0
1533222560.644,80.078,48.828,86.914,32.227,-16.602,0
1533222560.648,65.430,54.199,-42.480,32.227,-38.574,0
1533222560.651,54.688,48.828,-48.828,25.879,13.184,0
1533222560.655,63.965,46.875,-49.316,23.926,38.086,0
1533222560.659,79.590,51.270,67.383,27.832,45.898,0
1533222560.663,79.590,49.316,102.539,31.738,42.969,0
1533222560.667,66.895,51.270,-38.574,31.738,41.016,0
1533222560.671,53.223,50.293,-38.086,17.090,25.391,0
1533222560.675,56.641,45.410,-21.484,15.625,34.668,0
1533222560.679,72.266,46.387,50.293,26.855,24.902,0
1533222560.683,77.148,49.316,71.777,27.832,-66.406,0
1533222560.687,59.570,43.457,-34.668,25.391,-45.410,0
1533222560.690,47.852,41.016,-69.336,24.902,-23.926,0
1533222560.694,51.270,41.016,-38.086,27.344,-25.391,0
1533222560.698,64.941,37.598,42.969,33.691,15.625,0
1533222560.702,73.242,38.574,51.270,33.691,29.785,0
1533222560.706,65.430,38.086,-9.277,32.715,91.797,0
1533222560.710,57.617,38.574,-38.086,30.762,109.375,0
1533222560.714,62.500,41.504,-60.059,31.250,-4.395,0
1533222560.718,77.637,37.109,-2.930,38.086,-22.461,0
1533222560.722,90.332,32.715,88.867,45.898,44.434,0
1533222560.726,80.078,36.133,33.691,47.852,29.297,0
1533222560.730,54.688,41.504,-56.641,38.086,-2.441,0
1533222560.733,43.945,36.621,-43.945,31.738,-18.555,0
1533222560.737,71.777,35.645,47.363,37.109,-4.883,0
1533222560.741,100.098,41.992,107.910,40.527,19.043,0
1533222560.745,96.191,42.969,3.418,36.621,20.508,0
1533222560.749,81.543,44.922,-87.402,36.621,56.152,0
1533222560.753,76.660,43.945,-9.766,40.527,78.613,0
1533222560.757,95.703,46.875,14.160,37.598,5.371,0
1533222560.761,108.398,47.363,90.332,29.297,-36.133,0
1533222560.765,96.191,43.945,97.656,29.297,15.137,0
1533222560.769,76.172,42.969,-38.574,30.273,71.777,0
1533222560.773,66.406,41.016,-33.203,21.973,80.078,0
1533222560.776,76.660,39.062,5.371,20.020,63.477,0
1533222560.780,86.426,35.645,76.660,22.461,19.043,0
1533222560.784,74.219,32.227,64.941,19.043,27.832,0
1533222560.788,57.129,33.203,-58.105,19.531,41.016,0
1533222560.792,79.590,55.176,-37.598,37.598,36.133,0
1533222560.796,94.727,60.059,-9.277,41.504,66.406,0
1533222560.800,83.984,47.363,68.848,30.273,-12.207,0
1533222560.804,76.172,43.457,97.656,27.344,-31.738,0
1533222560.808,67.383,40.039,-41.504,21.484,16.113,0
1533222560.812,53.223,36.133,-46.387,19.043,-11.719,0
1533222560.815,56.152,34.668,-14.160,20.508,11.230,0
1533222560.819,67.383,34.668,53.223,24.414,44.922,0
1533222560.823,65.918,31.738,66.406,30.762,13.672,0
1533222560.827,45.898,25.879,-58.105,29.785,22.949,0
1533222560.831,33.691,31.250,-83.008,28.320,37.598,0
1533222560.835,41.992,38.086,-13.184,28.809,110.840,0
1533222560.839,54.199,37.109,52.734,24.414,94.238,0
1533222560.843,55.176,36.133,24.414,25.391,1.465,0
1533222560.847,45.410,37.598,-57.617,29.297,-16.602,0
1533222560.851,40.039,39.062,-34.180,19.043,27.832,0
1533222560.855,45.410,36.621,-44.922,10.742,69.336,0
1533222560.858,63.477,36.133,8.301,17.578,-6.836,0
1533222560.862,72.754,38.574,80.566,17.578,-41.016,0
1533222560.866,61.035,42.480,-30.273,11.230,-18.066,0
1533222560.870,43.457,40.527,-66.895,6.348,20.996,0
1533222560.874,36.133,41.016,-64.453,1.465,0.000,0
1533222560.878,44.922,33.203,6.836,8.301,-0.488,0
1533222560.882,59.082,20.996,117.676,16.602,44.434,0
1533222560.886,50.293,28.809,-11.719,9.277,20.020,0
1533222560.890,32.227,33.203,-114.258,-3.418,76.172,0
1533222560.894,43.945,36.621,-59.082,-5.371,94.238,0
1533222560.898,73.730,38.086,57.129,-0.488,58.594,0
1533222560.901,86.426,39.551,85.449,3.906,4.883,0
1533222560.905,67.871,41.504,-33.203,4.883,-12.207,0
1533222560.909,48.340,43.457,-102.051,0.977,-3.418,0
1533222560.913,39.551,39.551,-52.246,-9.277,-24.902,0
1533222560.917,42.480,32.715,-8.789,-12.695,37.109,0
1533222560.921,52.734,34.180,47.852,-12.695,46.387,0
1533222560.925,45.410,35.156,0.488,-11.230,-16.113,0
1533222560.929,24.902,32.227,-118.164,-4.395,-17.090,0
1533222560.933,24.902,34.668,-94.238,-6.836,0.000,0
1533222560.937,41.504,36.621,-54.688,-3.906,58.105,0
1533222560.940,60.059,37.109,47.363,2.930,86.914,0
1533222560.944,62.988,39.551,29.785,6.348,31.250,0
1533222560.948,42.480,39.551,-95.703,3.906,-1.953,0
1533222560.952,32.227,43.945,-68.359,6.836,37.598,0
1533222560.956,49.805,46.875,-14.648,18.066,17.578,0
1533222560.960,68.359,41.504,54.688,20.996,-19.043,0
1533222560.964,70.801,40.527,19.531,14.648,33.203,0
1533222560.968,47.852,39.551,-65.918,10.254,63.965,0
1533222560.972,35.156,41.016,-78.613,12.695,83.984,0
1533222560.976,50.781,46.387,-22.461,9.277,70.801,0
1533222560.980,63.477,42.969,54.688,5.859,60.547,0
1533222560.983,61.035,37.598,3.906,12.207,42.480,0
1533222560.987,45.898,41.992,-47.363,10.742,56.641,0
1533222560.991,36.133,39.062,-45.410,-4.395,60.059,0
1533222560.995,38.574,36.133,-63.477,-11.230,58.105,0
1533222560.999,48.828,36.621,20.996,-4.395,32.715,0
1533222561.003,62.988,36.133,61.523,2.441,68.359,0
1533222561.007,51.758,36.621,-90.332,7.324,35.156,0
1533222561.011,36.621,35.645,-70.801,2.441,-16.113,0
1533222561.015,51.270,38.574,-64.941,-1.465,39.551,0
1533222561.019,65.918,41.016,-17.090,7.324,-25.391,0
1533222561.023,63.965,40.527,106.445,10.742,-36.621,0
1533222561.026,54.688,39.062,-37.598,6.348,-8.789,0
1533222561.030,43.457,36.621,-127.441,4.395,-58.594,0
1533222561.034,50.293,38.574,-42.969,4.883,-46.875,0
1533222561.038,67.383,38.086,18.555,0.488,23.926,0
1533222561.042,75.684,37.598,93.262,0.488,24.902,0
1533222561.046,71.289,35.645,23.438,0.000,72.754,0
1533222561.050,62.012,34.668,-104.492,-3.906,29.785,0
1533222561.054,59.082,38.086,-54.688,-4.883,-4.395,0
1533222561.058,65.918,35.645,35.645,-4.883,49.805,0
1533222561.062,76.660,37.109,81.055,-0.488,110.352,0
1533222561.065,68.848,44.922,-7.812,5.371,80.078,0
1533222561.069,58.594,49.316,-74.219,5.371,42.969,0
1533222561.073,55.176,46.387,-78.613,0.977,20.020,0
1533222561.077,59.082,44.434,-5.371,4.395,-32.227,0
1533222561.081,63.965,48.828,102.051,12.695,20.508,0
1533222561.085,58.105,52.246,14.160,20.020,-13.672,0
1533222561.089,45.410,46.875,-74.707,16.113,27.832,0
1533222561.093,39.551,42.480,-99.121,10.742,31.738,0
1533222561.097,57.129,44.434,-28.809,15.137,24.414,0
1533222561.101,69.336,41.992,57.129,17.578,60.059,0
1533222561.105,60.547,41.016,-8.789,11.719,30.762,0
1533222561.108,44.434,41.504,-118.652,6.836,0.000,0
1533222561.112,38.086,45.410,-96.680,5.371,33.203,0
1533222561.116,46.387,44.434,-57.617,5.371,61.523,0
1533222561.120,57.129,41.016,33.691,4.395,4.883,0
1533222561.124,59.082,44.922,24.902,2.930,55.176,0
1533222561.128,50.781,48.340,-108.887,-0.488,44.434,0
1533222561.132,45.410,48.828,-57.617,2.441,26.367,0
1533222561.136,45.898,45.898,-58.594,1.465,24.414,0
1533222561.140,64.941,45.898,20.508,3.906,-43.457,0
1533222561.144,72.754,50.293,104.004,8.301,-16.602,0
1533222561.148,47.852,48.828,-54.199,5.859,65.430,0
1533222561.151,37.109,46.387,-94.238,1.465,68.359,0
1533222561.155,44.922,46.387,-28.809,-0.488,96.680,0
1533222561.159,65.918,48.340,51.270,3.906,63.477,0
1533222561.163,65.918,46.875,53.711,5.371,56.152,0
1533222561.167,46.387,48.828,-77.637,-0.488,80.566,0
1533222561.171,44.922,48.828,-108.398,-3.906,46.387,0
1533222561.175,52.246,44.434,-44.434,-2.441,16.602,0
1533222561.179,64.453,43.457,62.988,1.465,51.758,0
1533222561.183,68.359,43.457,118.652,6.836,59.082,0
1533222561.187,58.105,45.898,-42.969,10.254,-15.625,0
1533222561.190,50.781,43.945,-98.633,13.672,10.742,0
1533222561.194,50.293,39.551,-53.223,12.695,28.320,0
1533222561.198,61.035,40.039,42.480,17.090,35.156,0
1533222561.202,67.383,37.598,61.035,24.902,36.621,0
1533222561.206,55.664,38.086,-47.852,28.320,6.836,0
1533222561.210,39.062,39.062,-83.984,24.414,32.715,0
1533222561.214,43.457,40.039,-70.801,20.996,45.410,0
1533222561.218,64.453,41.504,-2.930,20.996,4.883,0
1533222561.222,72.754,38.574,87.402,19.043,46.387,0
1533222561.226,80.078,47.363,3.418,29.785,34.180,0
1533222561.230,76.172,53.711,-109.375,42.480,-41.016,0
1533222561.233,42.480,41.016,-46.875,17.090,-8.789,0
1533222561.237,40.527,35.645,0.977,1.953,20.996,0
1533222561.241,61.523,42.969,74.707,13.184,16.602,0
1533222561.245,60.547,41.016,39.062,15.137,24.414,0
1533222561.249,56.152,33.203,-92.773,20.508,26.855,0
1533222561.253,45.898,29.297,-68.359,20.020,7.812,0
1533222561.257,47.363,25.879,12.207,18.555,-44.434,0
1533222561.261,63.965,29.785,76.172,21.973,-5.371,0
1533222561.265,55.664,30.762,-21.973,17.578,61.523,0
1533222561.269,36.621,31.738,-92.773,14.160,-0.488,0
1533222561.273,32.227,34.668,-36.133,14.160,13.672,0
1533222561.276,45.410,33.203,-46.387,13.672,37.598,0
1533222561.280,65.430,31.250,44.434,17.578,31.250,0
1533222561.284,58.594,34.668,58.594,18.555,38.574,0
1533222561.288,43.945,37.598,-86.426,17.090,41.504,0
1533222561.292,42.969,39.551,-62.012,13.184,37.109,0
1533222561.296,46.875,45.410,-9.766,12.695,27.344,0
1533222561.300,55.664,52.246,55.176,18.066,-0.977,0
1533222561.304,56.641,52.734,50.293,15.137,4.395,0
1533222561.308,43.945,52.734,-71.289,11.230,35.156,0
1533222561.312,33.691,56.152,-89.355,11.719,-4.395,0
1533222561.315,35.156,53.711,-9.766,6.348,9.766,0
1533222561.319,52.246,53.223,90.332,5.859,59.570,0
1533222561.323,62.500,56.152,120.605,11.719,23.926,0
1533222561.327,48.340,51.270,-24.414,9.766,-28.320,0
1533222561.331,38.086,49.805,-38.086,5.859,40.527,0
1533222561.335,41.016,45.410,-7.812,7.324,89.844,0
1533222561.339,56.641,46.387,61.523,16.602,57.617,0
1533222561.343,65.430,50.781,54.688,20.508,-26.367,0
1533222561.347,48.828,46.387,-25.391,13.184,-77.148,0
1533222561.351,35.156,45.410,-49.316,8.301,-67.383,0
1533222561.355,40.527,44.922,-22.461,7.812,-1.953,0
1533222561.358,49.805,41.992,48.828,8.789,71.777,0
1533222561.362,53.223,41.016,65.430,14.648,27.832,0
1533222561.366,40.039,41.504,1.953,14.160,-5.859,0
1533222561.370,31.738,46.875,-31.250,14.648,11.230,0
1533222561.374,42.969,52.734,-23.926,19.531,51.758,0
1533222561.378,50.781,46.387,8.789,11.230,75.195,0
1533222561.382,56.152,41.992,93.262,12.695,39.062,0
1533222561.386,44.434,42.480,19.043,20.020,-4.883,0
1533222561.390,22.461,39.551,-53.711,14.648,-5.371,0
1533222561.394,16.602,35.645,-23.926,11.719,26.367,0
1533222561.397,34.180,36.621,42.480,16.602,79.590,0
1533222561.401,54.688,41.992,66.406,19.531,50.781,0
1533222561.405,49.805,42.969,-5.859,19.043,15.625,0
1533222561.409,34.180,41.016,-51.270,11.230,56.641,0
1533222561.413,28.809,39.062,-12.695,3.418,19.531,0
1533222561.417,55.176,53.223,6.836,18.555,27.832,0
1533222561.421,78.613,68.359,99.121,34.180,42.969,0
1533222561.425,68.848,63.965,100.586,29.785,40.527,0
1533222561.429,47.852,61.523,-48.828,20.508,59.082,0
1533222561.433,35.156,58.594,-52.246,9.766,21.973,0
1533222561.437,55.176,56.641,38.086,15.137,-19.531,0
1533222561.440,71.289,55.664,114.746,20.020,-26.367,0
1533222561.444,52.246,48.340,46.387,12.695,6.836,0
1533222561.448,36.133,50.781,-62.500,18.066,21.484,0
1533222561.452,29.297,49.316,-71.289,5.859,40.039,0
1533222561.456,33.691,42.969,3.906,-4.395,40.039,0
1533222561.460,52.246,42.480,102.051,4.395,41.992,0
1533222561.464,46.875,43.945,64.941,4.883,29.785,0
1533222561.468,36.621,44.434,-39.551,5.859,68.848,0
1533222561.472,27.832,38.574,-45.410,1.465,90.820,0
1533222561.476,22.461,35.645,-51.758,-1.465,47.363,0
1533222561.480,42.480,37.109,46.387,4.883,20.020,0
1533222561.483,51.758,36.621,117.676,8.301,46.387,0
1533222561.487,35.645,35.645,-35.156,5.371,34.668,0
1533222561.491,29.297,34.180,-66.406,2.930,38.574,0
1533222561.495,39.062,43.945,-26.367,12.207,31.250,0
1533222561.499,71.289,64.453,68.359,32.715,-17.578,0
1533222561.503,106.445,88.379,125.488,56.152,-26.367,0
1533222561.507,91.309,97.168,61.523,60.547,-19.043,0
1533222561.511,50.781,70.801,-13.672,35.645,27.832,0
1533222561.515,39.551,53.711,-44.434,12.695,17.578,0
1533222561.519,52.734,52.246,62.012,5.371,-17.090,0
1533222561.522,64.941,54.199,113.281,11.719,42.480,0
1533222561.526,54.199,50.781,-33.691,10.254,68.848,0
1533222561.530,27.832,44.922,-87.402,-1.953,21.973,0
1533222561.534,24.414,44.434,-62.500,-3.906,29.297,0
1533222561.538,32.715,40.039,0.000,-6.836,25.879,0
1533222561.542,40.039,38.574,103.027,-3.418,16.602,0
1533222561.546,38.574,48.340,-22.461,10.254,41.016,0
1533222561.550,25.879,57.129,-67.871,10.742,-7.812,0
1533222561.554,29.297,59.570,10.742,12.695,5.859,0
1533222561.558,45.410,58.594,3.906,20.020,30.273,0
1533222561.562,58.105,56.152,98.145,17.578,-2.930,0
1533222561.565,45.898,49.316,64.453,10.254,37.598,0
1533222561.569,37.598,51.758,-62.988,13.184,94.238,0
1533222561.573,52.734,62.012,-35.156,28.809,48.340,0
1533222561.577,72.266,72.266,66.895,39.551,17.578,0
1533222561.581,73.730,67.383,128.418,32.715,45.410,0
1533222561.585,49.316,51.270,18.066,14.648,25.391,0
1533222561.589,21.973,41.016,-93.262,-3.906,-59.570,0
1533222561.593,20.020,35.156,-63.965,-12.695,-48.828,0
1533222561.597,31.738,34.668,-21.973,-15.137,-3.906,0
1533222561.601,36.621,31.250,76.660,-15.625,-21.973,0
1533222561.605,31.250,28.809,78.613,-9.277,-14.648,0
1533222561.608,26.367,34.180,-75.195,-0.977,-20.508,0
1533222561.612,37.109,44.434,-65.430,2.930,-48.340,0
1533222561.616,44.434,45.898,29.785,-3.418,-41.504,0
1533222561.620,49.805,36.133,101.562,-5.371,-58.105,0
1533222561.624,52.246,35.645,48.828,-0.488,-17.578,0
1533222561.628,31.738,36.621,-38.086,-4.395,75.195,0
1533222561.632,17.578,35.645,-51.758,-15.625,58.594,0
1533222561.636,31.250,35.156,-15.137,-14.160,14.648,0
1533222561.640,40.527,30.762,53.223,-13.184,28.809,0
1533222561.644,45.898,35.645,43.945,-6.348,28.809,0
1533222561.647,46.875,44.434,-18.555,5.859,12.695,0
1533222561.651,26.367,41.992,-21.973,-4.883,38.574,0
1533222561.655,17.090,38.086,-53.711,-21.484,59.082,0
1533222561.659,26.855,31.738,8.789,-25.391,24.414,0
1533222561.663,43.457,36.621,110.352,-7.324,-15.625,0
1533222561.667,24.902,40.039,-7.324,-2.930,-5.859,0
1533222561.671,-1.465,34.668,-66.895,-9.766,23.926,0
1533222561.675,10.742,35.156,-49.316,-8.301,4.883,0
1533222561.679,31.250,32.715,54.199,-13.184,28.809,0
1533222561.683,38.086,32.715,58.105,-14.160,34.180,0
1533222561.687,24.414,30.762,-57.617,-10.254,16.113,0
1533222561.690,12.695,29.785,-63.965,-13.184,10.742,0
1533222561.694,20.996,28.809,-20.508,-14.160,23.926,0
1533222561.698,37.598,31.250,39.551,-8.789,89.355,0
1533222561.702,46.875,32.227,80.566,-6.836,56.641,0
1533222561.706,35.156,28.320,-9.766,-7.812,41.992,0
1533222561.710,20.996,34.180,-58.105,-10.254,106.445,0
1533222561.714,22.949,34.180,-51.270,-10.254,114.258,0
1533222561.718,37.598,30.273,30.762,-10.254,45.898,0
1533222561.722,46.875,32.227,108.398,-10.254,36.133,0
1533222561.726,34.180,30.273,8.789,-9.277,57.129,0
1533222561.730,12.207,31.738,-84.473,-11.230,59.082,0
1533222561.733,6.348,32.715,-66.895,-12.207,50.293,0
1533222561.737,24.414,32.715,-16.602,-11.230,31.250,0
1533222561.741,45.898,33.691,78.125,-5.859,0.000,0
1533222561.745,41.992,33.691,97.656,-3.418,-6.836,0
1533222561.749,25.879,35.645,-47.852,-4.395,11.719,0
1533222561.753,22.949,36.621,-56.152,-3.418,27.344,0
1533222561.757,35.645,37.598,51.270,-4.883,50.781,0
1533222561.761,42.480,31.250,111.328,-10.254,69.824,0
1533222561.765,35.156,32.715,34.180,-10.254,76.172,0
1533222561.769,22.461,34.180,-55.176,-7.812,85.938,0
1533222561.772,36.621,33.691,-51.758,-11.230,92.285,0
1533222561.776,46.387,35.156,11.230,-14.160,40.527,0
1533222561.780,47.852,31.738,76.172,-11.230,-0.977,0
1533222561.784,44.922,31.738,64.941,-10.254,27.832,0
1533222561.788,23.438,39.551,-36.133,-7.812,-18.555,0
1533222561.792,11.719,41.016,-45.410,-4.883,-40.039,0
1533222561.796,18.066,36.621,6.836,-7.812,13.672,0
1533222561.800,35.156,35.645,89.355,-4.395,-30.762,0
1533222561.804,40.527,36.133,76.660,3.906,-46.387,0
1533222561.808,23.438,37.109,-40.527,-1.953,34.668,0
1533222561.812,1.465,35.156,-41.992,-9.766,67.871,0
1533222561.815,4.395,29.785,-50.781,-10.254,48.340,0
1533222561.819,28.320,32.227,22.461,-3.418,60.547,0
1533222561.823,41.016,37.598,33.203,1.953,94.238,0
1533222561.827,20.020,35.645,-119.629,-5.371,48.828,0
1533222561.831,-4.883,29.785,-100.586,-12.207,29.785,0
1533222561.835,5.371,31.250,-64.453,-14.648,61.523,0
1533222561.839,31.250,38.574,21.484,-19.043,53.711,0
1533222561.843,57.129,49.316,71.777,-1.465,-2.930,0
1533222561.847,35.156,39.551,-62.500,3.418,0.488,0
1533222561.851,-9.766,24.902,-133.789,-26.367,10.742,0
1533222561.855,-7.812,22.461,-78.125,-28.320,39.062,0
1533222561.858,12.695,22.949,-32.715,-22.949,65.430,0
1533222561.862,23.438,20.996,57.129,-20.508,28.809,0
1533222561.866,7.812,17.090,31.738,-16.113,32.715,0
1533222561.870,-16.602,18.555,-118.652,-21.484,-23.438,0
1533222561.874,-11.719,16.113,-100.098,-19.043,-34.668,0
1533222561.878,8.301,16.602,-13.184,-13.672,-31.250,0
1533222561.882,16.602,17.578,98.633,-5.859,-15.137,0
1533222561.886,13.184,18.555,19.043,1.465,30.273,0
1533222561.890,5.371,20.020,-105.957,-0.488,-30.273,0
1533222561.894,9.277,19.043,-67.871,0.488,-15.625,0
1533222561.897,21.973,19.043,31.738,-0.488,7.812,0
1533222561.901,30.273,20.020,95.215,-1.953,7.324,0
1533222561.905,24.902,22.461,-0.977,6.348,36.133,0
1533222561.909,7.324,24.414,-92.773,5.859,20.996,0
1533222561.913,-0.977,22.461,-51.270,1.953,14.648,0
1533222561.917,16.602,23.926,37.598,5.859,52.246,0
1533222561.921,31.250,22.461,63.477,6.348,70.312,0
1533222561.925,23.438,22.461,17.090,5.859,25.391,0
1533222561.929,7.812,21.973,-57.129,5.859,-32.715,0
1533222561.933,-2.930,19.043,-46.875,0.488,-56.152,0
1533222561.937,8.301,20.996,-22.461,-1.953,-17.090,0
1533222561.940,32.227,24.902,61.523,5.371,44.434,0
1533222561.944,34.668,26.367,87.891,4.395,70.312,0
1533222561.948,13.672,26.367,-53.711,-2.441,78.125,0
1533222561.952,8.301,29.297,-52.246,0.000,63.965,0
1533222561.956,22.461,25.879,66.895,-3.418,33.691,0
1533222561.960,37.598,27.832,176.270,-4.395,11.230,0
1533222561.964,45.410,33.203,111.328,1.465,-2.930,0
1533222561.968,28.809,31.738,20.020,0.977,53.711,0
1533222561.972,11.719,32.227,33.691,-4.395,75.195,0
1533222561.976,22.949,34.668,49.805,-9.277,67.871,0
1533222561.979,38.086,35.156,144.043,-7.812,109.375,0
1533222561.983,41.016,32.227,198.730,-3.906,72.266,0
1533222561.987,27.832,30.762,50.781,-3.906,62.988,0
1533222561.991,12.207,32.227,-1.953,-6.348,69.336,0
1533222561.995,15.625,31.738,35.156,-5.859,72.754,0
1533222561.999,29.785,33.691,107.422,0.977,30.762,0
1533222562.003,33.691,34.180,123.535,0.488,-41.504,0
1533222562.007,23.438,31.738,44.922,-3.906,-14.160,0
1533222562.011,14.160,32.227,-16.602,0.000,11.719,0
1533222562.015,18.555,37.598,0.488,1.465,-28.320,0
1533222562.019,29.785,37.598,120.117,0.000,87.891,0
1533222562.022,28.809,31.738,171.875,4.883,92.773,0
1533222562.026,22.461,34.180,66.406,8.789,-29.297,0
1533222562.030,20.996,39.551,6.836,12.207,34.180,0
1533222562.034,23.438,35.156,5.859,10.742,76.172,0
1533222562.038,35.645,31.738,72.754,6.348,32.715,0
1533222562.042,47.852,32.227,137.207,10.742,37.109,0
1533222562.046,46.875,32.227,24.414,12.695,9.766,0
1533222562.050,29.297,33.691,-43.945,4.883,-30.273,0
1533222562.054,26.855,34.180,1.953,0.000,29.297,0
1533222562.058,47.363,33.203,54.199,7.324,62.012,0
1533222562.062,52.734,33.691,96.680,11.230,36.133,0
1533222562.065,39.062,34.180,51.270,8.789,55.664,0
1533222562.069,20.996,35.645,-16.113,7.812,58.105,0
1533222562.073,9.277,37.109,1.953,3.906,47.852,0
1533222562.077,20.996,33.691,-3.418,4.395,2.930,0
1533222562.081,37.109,33.691,100.586,1.953,22.949,0
1533222562.085,35.645,39.551,97.168,1.465,60.059,0
1533222562.089,18.555,41.016,-36.133,-1.465,28.809,0
1533222562.093,7.812,37.598,-32.227,-11.230,41.992,0
1533222562.097,21.973,37.109,41.504,-4.395,41.992,0
1533222562.101,42.480,33.691,118.164,2.930,21.973,0
1533222562.104,35.156,33.691,54.199,0.000,37.598,0
1533222562.108,12.695,38.086,-60.547,1.953,20.508,0
1533222562.112,12.695,38.574,-6.836,1.953,15.137,0
1533222562.116,28.320,36.133,21.484,1.953,58.105,0
1533222562.120,43.457,36.133,84.473,5.371,48.340,0
1533222562.124,49.316,41.504,135.254,10.254,11.719,0
1533222562.128,37.109,41.504,-7.812,9.766,6.836,0
1533222562.132,27.832,42.969,-50.781,8.301,-21.484,0
1533222562.136,37.598,42.480,32.227,11.230,-19.531,0
1533222562.140,56.152,44.434,124.023,9.277,-4.883,0
1533222562.144,63.965,51.758,83.008,15.137,14.648,0
1533222562.147,43.945,50.293,-26.855,14.160,40.527,0
1533222562.151,22.461,47.363,-59.570,4.883,29.297,0
1533222562.155,23.438,43.945,-22.949,0.977,65.918,0
1533222562.159,42.969,44.922,84.473,3.418,65.918,0
1533222562.163,55.664,47.852,110.840,6.348,29.297,0
1533222562.167,52.734,48.828,-11.230,7.324,94.727,0
1533222562.171,41.992,50.781,-69.824,13.672,87.891,0
1533222562.175,19.531,44.434,-48.828,7.812,23.438,0
1533222562.179,18.066,40.527,50.293,-8.789,40.527,0
1533222562.183,32.715,41.504,97.168,-0.488,-9.277,0
1533222562.187,30.273,43.945,-16.113,12.695,-38.086,0
1533222562.190,28.320,48.340,-67.871,7.812,-17.090,0
1533222562.194,39.062,46.875,-38.574,2.930,-23.438,0
1533222562.198,55.176,43.945,43.945,1.465,-53.711,0
1533222562.202,68.848,55.664,101.562,8.301,1.465,0
1533222562.206,59.570,58.105,25.879,10.742,41.504,0
1533222562.210,38.086,54.688,-18.555,4.395,56.641,0
1533222562.214,44.922,59.570,-12.207,3.418,72.266,0
1533222562.218,59.570,61.523,-18.066,5.859,4.395,0
1533222562.222,61.035,55.176,115.234,8.301,11.230,0
1533222562.226,51.758,53.223,88.867,7.812,37.598,0
1533222562.229,32.715,47.363,-59.082,0.000,0.000,0
1533222562.233,32.715,41.016,-22.461,-4.883,-2.441,0
1533222562.237,50.293,40.527,46.875,-5.371,-12.695,0
1533222562.241,61.035,44.434,121.094,2.441,1.465,0
1533222562.245,59.082,48.340,41.992,9.277,48.340,0
1533222562.249,33.691,46.387,-66.406,1.953,25.879,0
1533222562.253,14.648,43.457,-36.621,-1.465,62.500,0
1533222562.257,23.438,45.410,57.129,0.000,48.340,0
1533222562.261,29.785,42.480,141.602,3.906,6.348,0
1533222562.265,26.367,44.434,62.988,12.695,44.922,0
1533222562.269,10.742,47.363,-40.039,9.766,44.434,0
1533222562.272,4.395,41.016,-39.551,2.441,74.707,0
1533222562.276,16.113,38.574,4.883,3.906,46.875,0
1533222562.280,29.785,39.062,109.375,1.953,43.457,0
1533222562.284,28.320,41.504,75.684,4.883,66.895,0
1533222562.288,12.695,38.086,-37.598,2.930,31.250,0
1533222562.292,15.137,42.480,-41.016,1.953,25.879,0
1533222562.296,35.156,51.270,-34.180,10.254,13.184,0
1533222562.300,48.340,47.363,28.320,7.812,32.715,0
1533222562.304,48.340,42.969,84.473,6.348,55.664,0
1533222562.308,28.320,38.574,-9.766,4.883,19.531,0
1533222562.312,22.461,42.969,-41.504,1.953,-2.441,0
1533222562.315,33.203,45.898,-7.812,-1.953,-1.953,0
1533222562.319,42.480,40.527,71.777,-4.883,-33.203,0
1533222562.323,49.316,41.504,87.402,-3.906,-1.465,0
1533222562.327,41.504,46.387,-25.391,-8.301,31.738,0
1533222562.331,20.508,41.504,-54.688,-13.184,44.922,0
1533222562.335,14.648,36.621,-41.992,-13.184,77.148,0
1533222562.339,35.645,38.574,27.344,-11.719,-2.930,0
1533222562.343,24.902,34.668,64.453,-9.766,-27.832,0
1533222562.347,12.207,34.180,-11.719,-9.277,18.555,0
1533222562.351,10.254,35.645,-33.691,-13.184,29.785,0
1533222562.354,8.789,35.645,-47.852,-17.578,41.016,0
1533222562.358,27.344,35.645,-5.859,-17.090,18.066,0
1533222562.362,41.016,34.180,99.609,-5.859,-39.551,0
1533222562.366,30.762,39.062,41.016,-2.441,-44.434,0
1533222562.370,3.906,42.480,-40.527,-16.602,46.875,0
1533222562.374,8.789,39.551,-48.828,-22.461,92.285,0
1533222562.378,35.645,42.969,16.602,-18.066,13.672,0
1533222562.382,49.805,45.410,104.980,-13.184,-12.695,0
1533222562.386,38.574,43.457,-5.859,-14.160,41.016,0
1533222562.390,17.578,41.504,-102.539,-16.602,23.926,0
1533222562.394,27.344,36.621,-43.457,-16.113,42.480,0
1533222562.397,42.480,38.574,56.152,-15.625,53.711,0
1533222562.401,47.363,45.410,112.305,-14.160,0.977,0
1533222562.405,41.016,43.945,14.648,-14.160,-30.273,0
1533222562.409,25.391,41.504,-61.523,-15.137,15.625,0
1533222562.413,30.273,39.551,-58.105,-15.137,12.695,0
1533222562.417,40.039,42.969,-29.297,-14.648,-4.395,0
1533222562.421,49.316,44.434,87.891,-14.648,83.496,0
1533222562.425,43.457,42.969,50.781,-11.719,29.297,0
1533222562.429,21.484,40.527,-64.941,-15.625,-4.883,0
1533222562.433,11.230,39.551,-61.035,-18.066,48.828,0
1533222562.437,20.996,41.504,-48.828,-18.066,35.156,0
1533222562.440,36.621,37.109,62.500,-16.602,35.645,0
1533222562.444,39.551,39.551,72.266,-11.719,4.883,0
1533222562.448,25.391,42.969,-41.504,-12.695,27.344,0
1533222562.452,17.578,40.039,-51.758,-16.602,86.426,0
1533222562.456,31.250,44.922,-31.250,-18.066,59.082,0
1533222562.460,46.387,46.875,67.383,-7.812,33.203,0
1533222562.464,55.176,45.898,66.895,0.488,22.461,0
1533222562.468,40.527,46.387,-44.434,-5.371,58.105,0
1533222562.472,27.832,40.527,-100.098,-8.301,62.012,0
1533222562.476,37.109,39.062,-39.062,-5.859,32.715,0
1533222562.479,52.246,44.922,77.148,-6.836,41.504,0
1533222562.483,57.617,49.316,38.086,0.000,50.781,0
1533222562.487,43.945,49.316,-39.062,0.488,51.758,0
1533222562.491,27.832,45.898,-22.949,-4.883,78.125,0
1533222562.495,27.344,44.922,-52.246,-4.395,69.824,0
1533222562.499,41.992,45.898,1.465,-4.395,16.602,0
1533222562.503,42.969,46.387,125.000,-4.883,11.230,0
1533222562.507,27.832,48.340,-7.812,-5.859,15.625,0
1533222562.511,10.254,48.340,-80.078,-10.742,0.000,0
1533222562.515,14.648,46.875,-22.461,-8.789,66.895,0
1533222562.519,40.039,44.922,47.363,-3.906,99.609,0
1533222562.522,52.246,45.898,88.379,1.465,41.504,0
1533222562.526,40.039,44.922,-9.766,5.859,58.105,0
1533222562.530,25.391,41.992,-99.121,3.906,73.242,0
1533222562.534,30.273,41.504,-55.176,4.395,27.344,0
1533222562.538,41.016,41.992,32.227,3.906,-13.184,0
1533222562.542,47.852,47.363,129.883,5.371,34.668,0
1533222562.546,34.668,44.434,35.156,4.883,37.109,0
1533222562.550,12.207,35.645,-66.406,-4.395,29.297,0
1533222562.554,14.648,40.039,-40.039,-5.371,49.805,0
1533222562.558,30.273,45.898,32.715,0.000,25.391,0
1533222562.561,40.527,50.293,96.680,-3.906,9.766,0
1533222562.565,37.598,53.223,17.578,-9.766,59.570,0
1533222562.569,22.461,49.316,-82.520,-10.254,8.789,0
1533222562.573,18.066,49.316,-66.406,-12.207,-36.133,0
1533222562.577,32.715,48.340,20.508,-13.184,28.809,0
1533222562.581,45.898,47.852,89.844,-11.230,40.527,0
1533222562.585,40.039,47.852,19.043,-10.742,15.625,0
1533222562.589,26.855,45.410,-83.984,-11.719,-10.742,0
1533222562.593,13.672,41.992,-55.664,-11.230,-65.430,0
1533222562.597,18.555,39.062,-25.391,-14.160,-38.574,0
1533222562.601,30.273,39.062,72.754,-14.648,11.719,0
1533222562.604,20.508,40.527,70.801,-9.766,-6.836,0
1533222562.608,1.953,38.574,-48.828,-7.324,41.504,0
1533222562.612,-2.930,34.668,-71.289,-8.789,61.035,0
1533222562.616,12.207,29.785,-3.418,-8.301,21.973,0
1533222562.620,31.250,23.926,75.684,-2.441,46.387,0
1533222562.624,35.645,26.367,-7.812,0.000,48.828,0
1533222562.628,21.484,27.832,-70.312,-3.418,2.930,0
1533222562.632,13.184,26.855,-30.762,-8.789,-0.977,0
1533222562.636,25.391,32.227,-32.715,-12.695,-41.504,0
1533222562.640,34.668,31.250,64.453,-12.207,-21.484,0
1533222562.644,35.645,31.250,78.125,-10.254,75.684,0
1533222562.647,24.414,33.691,-53.223,-13.672,83.008,0
1533222562.651,12.695,35.645,-76.660,-18.066,47.852,0
1533222562.655,22.949,38.086,-58.105,-15.625,46.875,0
1533222562.659,41.504,37.109,26.367,-16.602,61.035,0
1533222562.663,37.598,37.598,105.957,-12.695,14.160,0
1533222562.667,20.996,37.109,-42.969,-8.301,7.324,0
1533222562.671,12.207,38.086,-92.773,-13.184,55.176,0
1533222562.675,12.695,38.574,-53.223,-10.742,90.332,0
1533222562.679,25.391,37.598,14.648,-11.719,50.781,0
1533222562.683,38.086,35.645,122.559,-12.207,63.965,0
1533222562.686,23.438,29.785,-12.695,-8.301,64.453,0
1533222562.690,0.977,29.297,-94.727,-10.742,28.320,0
1533222562.694,10.254,34.180,-55.664,-10.254,11.230,0
1533222562.698,30.762,38.574,14.648,-6.836,14.648,0
1533222562.702,39.062,42.480,53.711,-4.395,15.137,0
1533222562.706,35.645,47.363,-8.301,-2.441,-20.508,0
1533222562.710,18.555,45.898,-66.406,-5.371,24.902,0
1533222562.714,15.137,40.039,-73.730,-10.742,45.410,0
1533222562.718,31.250,36.621,-26.367,-11.230,-21.973,0
1533222562.722,38.086,35.645,62.988,-5.859,-24.902,0
1533222562.726,31.250,35.645,22.949,-5.859,-4.883,0
1533222562.729,18.066,35.156,-74.219,-10.254,28.809,0
1533222562.733,9.277,27.832,-62.988,-13.672,38.574,0
1533222562.737,20.508,23.438,-33.203,-14.648,15.625,0
1533222562.741,37.598,24.902,73.242,-13.184,21.973,0
1533222562.745,34.180,21.484,57.129,-11.230,20.996,0
1533222562.749,16.113,19.043,-71.777,-11.719,33.691,0
1533222562.753,6.836,20.996,-74.219,-13.672,25.879,0
1533222562.757,15.137,19.043,5.371,-14.648,-10.742,0
1533222562.761,30.762,18.555,87.891,-9.277,-44.434,0
1533222562.765,32.715,19.043,18.066,-5.859,-2.441,0
1533222562.769,19.531,20.996,-64.941,-6.348,24.414,0
1533222562.772,8.789,21.973,-38.086,-15.137,-10.742,0
1533222562.776,20.996,22.461,-42.480,-20.020,-10.254,0
1533222562.780,36.621,24.902,42.480,-11.230,-22.949,0
1533222562.784,39.551,26.855,90.332,-5.859,-52.246,0
1533222562.788,22.949,25.391,-43.945,-9.766,17.090,0
1533222562.792,9.766,23.926,-83.984,-11.230,39.062,0
1533222562.796,15.625,23.926,-18.555,-7.812,26.367,0
1533222562.800,37.598,26.367,81.543,-5.371,79.102,0
1533222562.804,48.828,29.785,41.016,-4.883,24.902,0
1533222562.808,32.227,30.273,-71.777,-2.441,-9.766,0
1533222562.811,21.484,34.180,-99.121,-1.953,22.949,0
1533222562.815,28.320,32.715,-63.477,0.488,6.348,0
1533222562.819,46.387,29.785,49.316,1.953,41.016,0
1533222562.823,56.152,33.691,114.746,1.465,51.758,0
1533222562.827,34.668,29.785,-23.926,0.000,83.008,0
1533222562.831,18.555,29.297,-97.168,-4.883,74.707,0
1533222562.835,31.250,31.250,-72.754,-5.859,24.902,0
1533222562.839,45.898,30.762,28.320,0.977,40.527,0
1533222562.843,52.734,31.250,63.477,6.836,6.836,0
1533222562.847,44.922,27.832,-23.926,1.953,37.598,0
1533222562.851,33.691,28.320,-84.961,-1.465,111.816,0
1533222562.854,37.109,27.832,-96.191,-3.906,13.184,0
1533222562.858,55.176,29.785,-9.766,-3.906,-38.574,0
1533222562.862,56.152,33.691,71.289,-3.418,11.230,0
1533222562.866,37.109,28.320,8.789,-7.324,54.688,0
1533222562.870,25.879,27.344,-82.031,-11.230,62.012,0
1533222562.874,27.344,28.320,-71.289,-16.602,24.414,0
1533222562.878,40.527,28.809,14.648,-15.625,-6.836,0
1533222562.882,51.758,29.297,93.262,-12.207,20.020,0
1533222562.886,37.598,28.320,-16.113,-10.254,46.387,0
1533222562.890,17.090,29.785,-87.891,-10.742,52.734,0
1533222562.894,23.438,33.691,-67.871,-6.836,61.523,0
1533222562.897,36.133,35.156,-24.902,-2.930,38.086,0
1533222562.901,48.828,33.691,67.871,-1.465,42.480,0
1533222562.905,48.340,35.645,-15.625,2.930,-12.207,0
1533222562.909,27.832,40.039,-67.383,-3.418,-23.926,0
1533222562.913,18.066,34.180,-19.531,-8.789,28.809,0
1533222562.917,26.855,32.715,-47.852,-8.301,22.949,0
1533222562.921,43.457,33.691,55.664,-6.836,21.973,0
1533222562.925,46.387,26.855,48.828,0.488,44.434,0
1533222562.929,20.996,29.297,-106.934,-0.488,-25.879,0
1533222562.933,17.090,38.574,-59.082,-2.930,-61.523,0
1533222562.936,39.062,38.574,18.066,-2.441,-26.367,0
1533222562.940,57.129,35.156,70.312,-1.953,-32.715,0
1533222562.944,57.617,32.227,33.203,-1.953,-8.789,0
1533222562.948,38.086,35.645,-74.219,-3.906,20.508,0
1533222562.952,28.320,42.969,-92.773,-5.859,24.902,0
1533222562.956,44.434,42.480,-50.781,-3.906,33.691,0
1533222562.960,54.199,39.551,59.570,-5.371,24.902,0
1533222562.964,45.898,37.109,102.051,-5.859,-9.766,0
1533222562.968,23.438,32.227,-29.297,-13.184,50.293,0
1533222562.972,8.301,31.738,-91.797,-24.902,52.246,0
1533222562.976,18.555,33.691,-43.945,-18.555,-47.852,0
1533222562.979,32.227,33.203,68.848,-11.230,23.438,0
1533222562.983,30.762,33.691,45.410,-10.742,29.785,0
1533222562.987,11.230,38.086,-30.273,-8.301,-40.527,0
1533222562.991,-8.789,38.086,-49.316,-10.742,30.762,0
1533222562.995,-3.418,34.180,-62.012,-9.277,37.598,0
1533222562.999,23.926,30.762,18.066,-4.883,29.785,0
1533222563.003,35.645,32.715,95.703,-3.906,96.680,0
1533222563.007,8.789,32.715,-15.625,-4.883,62.988,0
1533222563.011,-11.719,30.273,-88.867,-8.301,-19.531,0
1533222563.015,-1.953,32.715,-69.824,-5.859,-18.066,0
1533222563.019,10.254,36.133,20.508,-5.859,49.805,0
1533222563.022,14.160,33.691,83.496,-11.230,47.852,0
1533222563.026,7.812,29.785,-23.926,-10.742,50.781,0
1533222563.030,-10.254,26.855,-80.566,-13.184,62.012,0
1533222563.034,-7.324,27.832,-82.031,-15.625,11.719,0
1533222563.038,14.160,32.227,-4.395,-16.113,-21.484,0
1533222563.042,26.855,33.691,115.723,-13.672,42.480,0
1533222563.046,19.043,29.785,-28.320,-6.348,38.574,0
1533222563.050,2.930,27.832,-89.355,-9.277,-29.785,0
1533222563.054,9.766,29.785,-23.438,-11.230,2.441,0
1533222563.058,25.879,30.762,-24.414,-7.324,9.766,0
1533222563.061,36.133,32.227,89.355,-3.906,-5.371,0
1533222563.065,32.715,29.297,69.824,-0.977,37.109,0
1533222563.069,15.137,27.344,-78.613,-4.883,50.293,0
1533222563.073,13.184,32.227,-62.500,-9.277,52.246,0
1533222563.077,28.320,37.109,53.711,-3.906,50.293,0
1533222563.081,32.227,36.133,102.051,-0.488,-1.953,0
1533222563.085,20.996,34.180,26.855,-4.883,6.836,0
1533222563.089,15.137,38.086,-100.098,-5.859,-30.273,0
1533222563.093,9.277,40.527,-109.375,-8.789,-61.523,0
1533222563.097,12.695,37.598,26.855,-10.742,17.090,0
1533222563.101,27.832,33.203,116.699,-7.812,21.973,0
1533222563.104,25.391,30.762,55.176,-5.371,68.359,0
1533222563.108,13.184,33.691,-71.777,-5.859,46.387,0
1533222563.112,7.324,34.668,-78.125,-8.789,-15.137,0
1533222563.116,13.184,33.203,-3.418,-9.277,44.434,0
1533222563.120,35.156,33.203,75.195,-4.883,64.453,0
1533222563.124,37.598,32.715,43.457,-3.906,-17.090,0
1533222563.128,7.324,30.273,-68.848,-9.766,-52.246,0
1533222563.132,-2.441,24.902,-63.965,-16.602,-19.531,0
1533222563.136,19.043,26.855,-63.965,-17.090,1.953,0
1533222563.140,30.762,29.297,-0.488,-17.578,-45.898,0
1533222563.144,30.762,25.879,104.004,-17.090,-31.250,0
1533222563.147,24.414,28.809,-17.578,-14.648,-3.906,0
1533222563.151,12.695,32.227,-70.312,-18.066,-25.391,0
1533222563.155,23.438,35.645,-40.039,-18.066,18.555,0
1533222563.159,42.480,39.062,34.180,-11.230,58.594,0
1533222563.163,43.457,37.598,99.609,-4.395,23.926,0
1533222563.167,33.203,39.551,-21.484,-6.836,70.801,0
1533222563.171,16.602,40.039,-95.215,-16.602,63.965,0
1533222563.175,12.695,38.574,-75.195,-18.555,27.832,0
1533222563.179,20.508,40.527,14.648,-16.113,-7.324,0
1533222563.183,26.855,41.016,69.824,-15.625,8.301,0
1533222563.186,21.484,35.645,-50.293,-10.254,63.965,0
1533222563.190,7.812,33.691,-58.594,-1.465,43.945,0
1533222563.194,9.277,52.246,-33.691,-14.648,37.598,0
1533222563.198,17.090,54.688,-37.109,-34.668,31.738,0
1533222563.202,20.996,45.898,91.309,-24.902,-9.766,0
1533222563.206,22.461,50.781,32.715,-14.648,12.207,0
1533222563.210,12.695,48.340,-89.844,-15.137,20.996,0
1533222563.214,9.277,37.598,-53.711,-13.184,19.531,0
1533222563.218,30.762,31.738,12.695,-11.719,30.273,0
1533222563.222,41.016,28.320,62.988,-9.277,30.762,0
1533222563.226,39.062,29.785,-7.324,-6.348,29.785,0
1533222563.229,29.297,29.785,-76.660,-6.348,58.594,0
1533222563.233,19.043,30.762,-92.773,-6.836,72.754,0
1533222563.237,28.809,31.738,-41.992,-13.184,41.504,0
1533222563.241,41.504,27.832,58.594,-11.719,41.016,0
1533222563.245,41.504,31.250,29.785,0.488,1.465,0
1533222563.249,19.531,32.227,-73.242,-1.465,46.875,0
1533222563.253,12.207,31.250,-80.078,-5.371,88.379,0
1533222563.257,26.855,30.273,-12.695,-3.418,30.273,0
1533222563.261,34.668,27.832,66.406,-8.301,29.297,0
1533222563.265,34.668,32.227,-12.695,-3.418,17.090,0
1533222563.268,21.484,36.133,-76.660,0.977,42.969,0
1533222563.272,13.184,31.738,-71.777,-4.883,52.734,0
1533222563.276,20.508,32.715,-22.949,-4.395,21.484,0
1533222563.280,38.574,33.203,67.871,2.930,70.801,0
1533222563.284,46.875,31.250,10.254,7.324,65.430,0
1533222563.288,28.809,32.715,-69.336,8.789,15.137,0
1533222563.292,13.184,31.250,-33.691,8.301,4.883,0
1533222563.296,15.625,31.738,-60.059,8.789,12.695,0
1533222563.300,34.180,35.156,23.926,8.789,8.789,0
1533222563.304,45.898,35.156,112.793,13.184,17.578,0
1533222563.308,34.668,38.086,-52.246,6.348,22.949,0
1533222563.311,20.996,40.039,-100.586,2.441,4.395,0
1533222563.315,26.855,43.457,-51.270,2.441,28.809,0
1533222563.319,44.922,45.898,30.273,-4.395,14.648,0
1533222563.323,43.945,41.992,47.363,-3.906,17.090,0
1533222563.327,21.484,42.969,-63.965,-5.371,25.391,0
1533222563.331,3.418,45.898,-82.520,-5.859,0.488,0
1533222563.335,9.277,48.340,-52.246,-5.371,-2.930,0
1533222563.339,31.738,44.922,9.277,-3.906,-0.977,0
1533222563.343,40.039,41.992,73.242,-3.418,13.672,0
1533222563.347,23.926,43.945,-47.363,-1.953,38.086,0
1533222563.351,2.930,41.016,-119.141,-4.883,-43.945,0
1533222563.354,2.930,39.551,-87.402,-10.742,-40.039,0
1533222563.358,25.391,38.574,-18.555,-9.766,4.395,0
1533222563.362,37.598,37.109,87.891,-8.301,-18.066,0
1533222563.366,24.902,37.109,-15.137,-9.766,-7.324,0
1533222563.370,8.301,36.133,-123.535,-14.160,-3.418,0
1533222563.374,13.672,35.645,-113.770,-19.043,7.812,0
1533222563.378,33.203,34.180,-43.457,-17.090,7.812,0
1533222563.382,42.969,36.621,74.219,-6.348,-25.879,0
1533222563.386,35.645,38.086,28.809,0.000,5.371,0
1533222563.390,31.738,33.691,-101.562,1.465,23.926,0
1533222563.393,35.645,34.668,-103.027,2.441,-29.297,0
1533222563.397,47.852,35.645,-10.742,-0.488,29.785,0
1533222563.401,64.453,34.668,50.781,0.000,2.930,0
1533222563.405,61.523,34.668,-17.578,2.441,-10.254,0
1533222563.409,40.527,29.785,-119.141,-3.906,-12.695,0
1533222563.413,28.809,26.367,-96.680,-7.324,-31.738,0
1533222563.417,38.574,27.832,-3.418,-6.348,52.734,0
1533222563.421,56.152,30.762,41.504,-0.488,121.582,0
1533222563.425,51.758,30.273,-15.137,0.000,67.871,0
1533222563.429,29.785,30.762,-72.266,-2.441,32.715,0
1533222563.433,21.484,29.785,-100.098,-0.488,47.852,0
1533222563.436,39.062,29.297,-113.770,-2.930,-18.555,0
1533222563.440,56.152,30.762,28.320,-5.371,-41.016,0
1533222563.444,50.781,26.855,68.359,-3.906,-38.574,0
1533222563.448,37.109,21.973,-76.660,-2.930,-3.906,0
1533222563.452,35.645,26.367,-109.375,-5.859,57.129,0
1533222563.456,51.270,29.297,-73.242,-3.418,1.953,0
1533222563.460,61.523,27.832,42.480,-4.395,-33.691,0
1533222563.464,58.105,28.320,24.902,-2.441,15.137,0
1533222563.468,41.504,27.832,-111.328,11.230,6.348,0
1533222563.472,24.902,31.738,-92.285,5.859,18.066,0
1533222563.476,28.320,34.180,-59.570,1.953,34.180,0
1533222563.479,43.457,28.809,16.113,1.465,8.789,0
1533222563.483,54.199,24.902,60.059,-2.930,31.738,0
1533222563.487,40.527,23.926,-44.434,0.977,99.121,0
1533222563.491,13.184,18.066,-117.188,1.465,128.906,0
1533222563.495,8.301,18.066,-115.234,-0.977,63.965,0
1533222563.499,29.785,26.855,21.973,9.277,40.527,0
1533222563.503,35.645,26.367,52.246,12.207,13.184,0
1533222563.507,20.508,24.902,-46.387,2.930,20.996,0
1533222563.511,11.230,32.715,-111.328,-6.836,77.148,0
1533222563.515,15.137,35.645,-121.094,-8.301,44.922,0
1533222563.518,28.320,34.668,19.043,1.465,19.043,0
1533222563.522,46.387,33.203,86.426,5.371,-0.488,0
1533222563.526,34.180,37.109,-43.457,0.488,45.410,0
1533222563.530,1.465,40.039,-134.277,-7.324,11.230,0
1533222563.534,-0.977,39.062,-116.211,-10.254,-48.828,0
1533222563.538,19.043,35.156,-5.371,-3.418,-30.273,0
1533222563.542,30.273,34.180,100.098,-0.488,44.922,0
1533222563.546,20.996,38.086,-66.895,-6.348,45.410,0
1533222563.550,1.953,37.109,-131.836,-16.113,11.719,0
1533222563.554,1.465,37.109,-65.918,-17.578,22.949,0
1533222563.558,19.531,38.574,-66.895,-12.207,41.016,0
1533222563.561,37.109,39.062,22.461,-13.184,86.426,0
1533222563.565,31.250,40.039,15.625,-13.672,79.590,0
1533222563.569,3.906,38.574,-84.961,-11.230,46.875,0
1533222563.573,-3.906,38.574,-99.121,-14.160,46.875,0
1533222563.577,12.695,39.062,-22.461,-10.254,43.945,0
1533222563.581,34.668,43.457,53.223,-8.301,-15.625,0
1533222563.585,32.715,44.434,-3.906,-7.812,-15.137,0
1533222563.589,14.160,39.551,-101.562,-7.324,16.602,0
1533222563.593,7.324,41.504,-91.797,-12.207,48.340,0
1533222563.597,18.555,45.410,-85.938,-10.254,65.430,0
1533222563.601,32.227,42.969,18.555,-3.906,52.246,0
1533222563.604,32.227,40.527,35.645,-2.441,36.621,0
1533222563.608,14.160,38.574,-93.750,-7.324,10.742,0
1533222563.612,-6.348,37.598,-89.844,-4.883,58.594,0
1533222563.616,4.395,35.156,-41.992,-8.301,81.055,0
1533222563.620,33.203,34.668,63.477,-9.277,107.422,0
1533222563.624,40.527,40.527,13.184,-4.395,25.879,0
1533222563.628,22.461,41.016,-80.566,-10.254,-5.859,0
1533222563.632,0.488,35.156,-101.562,-9.766,62.988,0
1533222563.636,11.230,35.156,-111.816,-6.348,-13.184,0
1533222563.640,36.133,38.086,13.184,-9.277,-34.180,0
1533222563.643,47.363,36.133,45.898,-6.836,21.973,0
1533222563.647,37.598,34.180,-96.191,-9.277,6.348,0
1533222563.651,11.230,37.109,-126.465,-17.090,-11.230,0
1533222563.655,11.719,36.133,-92.773,-13.672,41.504,0
1533222563.659,34.180,33.691,-48.340,-13.184,53.711,0
1533222563.663,36.133,36.133,64.453,-14.648,58.105,0
1533222563.667,21.484,34.668,-23.926,-8.301,25.391,0
1533222563.671,16.602,38.086,-119.141,-9.766,-3.906,0
1533222563.675,21.973,40.039,-94.727,-11.230,61.523,0
1533222563.679,32.715,32.715,-25.879,-12.695,34.668,0
1533222563.683,50.293,30.762,36.133,-5.859,-13.184,0
1533222563.686,40.039,34.668,-62.500,0.488,-33.691,0
1533222563.690,17.578,34.668,-113.770,-4.395,15.137,0
1533222563.694,17.578,31.250,-121.582,-13.184,8.301,0
1533222563.698,37.598,32.715,-22.949,-10.254,21.484,0
1533222563.702,49.805,31.738,31.250,1.465,65.430,0
1533222563.706,40.527,29.297,-51.270,1.465,53.223,0
1533222563.710,24.902,29.785,-87.402,-1.465,91.797,0
1533222563.714,23.438,31.738,-83.984,-3.906,58.105,0
1533222563.718,36.133,33.203,-69.336,-4.395,48.828,0
1533222563.722,45.898,34.180,31.250,-4.395,26.855,0
1533222563.726,33.203,29.297,9.766,-8.789,0.488,0
1533222563.729,17.090,29.785,-108.887,-3.906,4.883,0
1533222563.733,16.602,38.574,-94.727,0.000,21.973,0
1533222563.737,33.691,38.086,-6.836,0.000,57.129,0
1533222563.741,53.711,32.715,56.152,7.324,4.395,0
1533222563.745,35.156,33.691,-14.160,7.812,-25.391,0
1533222563.749,10.742,34.668,-126.465,1.953,-9.766,0
1533222563.753,6.836,30.273,-74.707,-0.977,-20.996,0
1533222563.757,14.648,26.855,-41.992,0.977,2.930,0
1533222563.761,26.367,29.785,24.414,1.953,-6.348,0
1533222563.765,29.785,35.645,71.777,-1.953,-32.715,0
1533222563.768,18.555,32.715,-68.848,-0.977,9.277,0
1533222563.772,12.695,31.250,-145.020,1.953,11.719,0
1533222563.776,18.555,29.297,-50.293,1.465,44.922,0
1533222563.780,32.227,25.879,63.477,-4.883,35.156,0
1533222563.784,35.645,24.902,2.930,-3.906,-21.973,0
1533222563.788,17.578,25.879,-83.008,0.977,20.996,0
1533222563.792,5.371,31.250,-116.211,-5.859,36.621,0
1533222563.796,13.184,31.250,-105.469,-5.859,36.621,0
1533222563.800,31.250,24.902,19.043,-8.789,49.316,0
1533222563.804,40.527,29.297,75.684,-8.301,15.137,0
1533222563.808,27.832,25.391,-70.312,-4.395,45.898,0
1533222563.811,10.742,18.555,-118.652,-11.230,40.039,0
1533222563.815,15.137,21.973,-94.727,-11.719,-23.438,0
1533222563.819,24.902,22.461,12.207,-4.883,6.348,0
1533222563.823,31.738,25.391,51.758,0.488,52.734,0
1533222563.827,31.250,28.320,-76.660,0.488,46.387,0
1533222563.831,21.973,27.832,-120.605,-3.418,41.992,0
1533222563.835,18.066,29.297,-62.988,-5.859,57.617,0
1533222563.839,29.785,28.320,-0.977,-4.395,72.754,0
1533222563.843,37.109,31.738,7.324,1.953,10.254,0
1533222563.847,21.484,36.621,-50.293,-3.906,-31.250,0
1533222563.850,20.020,40.527,-77.148,-1.465,-10.254,0
1533222563.854,21.484,37.598,-92.285,0.000,33.691,0
1533222563.858,20.996,31.738,-58.105,-7.812,9.277,0
1533222563.862,38.086,32.715,70.801,-1.953,2.930,0
1533222563.866,35.156,35.645,-6.836,7.324,48.340,0
1533222563.870,5.859,34.668,-120.117,3.418,41.992,0
1533222563.874,7.324,35.156,-104.492,-7.324,11.719,0
1533222563.878,31.738,38.086,-11.719,-4.395,39.062,0
1533222563.882,45.898,35.156,52.734,-1.953,15.137,0
1533222563.886,41.992,36.621,-64.453,-2.930,-36.133,0
1533222563.890,19.043,35.645,-122.070,-8.789,40.527,0
1533222563.893,16.602,33.691,-87.891,-13.184,20.996,0
1533222563.897,50.293,40.039,-34.668,-3.418,-23.438,0
1533222563.901,61.523,49.805,78.125,1.465,46.875,0
1533222563.905,53.223,54.199,45.898,3.906,20.996,0
1533222563.909,39.551,45.410,-65.918,14.160,24.902,0
1533222563.913,27.344,39.551,-100.098,10.742,22.949,0
1533222563.917,28.809,47.363,-18.066,-4.883,-5.859,0
1533222563.921,34.668,52.734,84.961,-10.742,19.043,0
1533222563.925,33.691,41.992,4.395,-10.742,-1.953,0
1533222563.929,11.719,37.109,-74.219,-20.020,20.996,0
1533222563.933,-3.418,42.480,-103.516,-22.949,22.949,0
1533222563.936,4.883,43.945,-56.641,-25.879,58.105,0
1533222563.940,18.555,38.574,47.852,-27.344,96.191,0
1533222563.944,22.461,39.551,30.762,-18.066,38.574,0
1533222563.948,5.371,43.457,-63.477,-14.160,29.297,0
1533222563.952,2.441,41.992,-79.102,-13.672,26.367,0
1533222563.956,19.531,38.086,-80.566,-15.137,83.008,0
1533222563.960,36.133,34.180,-4.883,-10.254,50.781,0
1533222563.964,41.992,36.133,76.172,-7.812,-0.977,0
1533222563.968,20.996,38.086,-54.199,-8.789,12.695,0
1533222563.972,11.230,43.457,-99.609,-8.301,9.766,0
1533222563.975,24.414,43.945,-50.781,-8.301,45.410,0
1533222563.979,34.180,39.551,22.461,-10.254,64.941,0
1533222563.983,36.133,37.109,7.324,-7.324,38.086,0
1533222563.987,27.832,39.062,-33.691,-3.418,81.543,0
1533222563.991,20.996,44.434,-64.453,-3.418,86.914,0
1533222563.995,22.461,43.457,-112.305,-8.789,16.602,0
1533222563.999,33.203,40.527,-21.484,-7.812,41.504,0
1533222564.003,40.527,42.480,95.215,-4.883,35.156,0
1533222564.007,25.391,43.945,-27.832,-13.672,3.906,0
1533222564.011,4.395,40.039,-105.957,-17.578,27.832,0
1533222564.015,10.742,41.016,-99.609,-8.789,27.344,0
1533222564.018,28.320,42.480,-16.113,-7.812,-18.555,0
1533222564.022,41.016,42.969,63.965,-5.859,-24.902,0
1533222564.026,26.367,43.457,-49.316,-5.371,11.230,0
1533222564.030,4.883,39.551,-145.996,-6.836,37.109,0
1533222564.034,13.184,41.992,-111.816,-7.324,38.086,0
1533222564.038,29.785,46.387,0.488,-5.859,10.742,0
1533222564.042,44.922,47.363,80.566,1.953,26.367,0
1533222564.046,36.621,53.223,-23.926,3.906,50.293,0
1533222564.050,22.461,53.223,-124.512,-0.488,40.039,0
1533222564.054,25.391,46.387,-120.605,-5.371,9.277,0
1533222564.058,30.273,43.945,-20.996,-10.742,-22.461,0
1533222564.061,39.062,43.945,85.938,-8.789,9.766,0
1533222564.065,27.832,40.527,-13.184,-9.766,22.461,0
1533222564.069,2.930,41.504,-109.375,-16.113,33.691,0
1533222564.073,5.859,44.434,-95.703,-18.555,35.645,0
1533222564.077,15.625,46.387,-93.750,-19.043,-1.465,0
1533222564.081,20.996,43.457,17.578,-15.625,36.621,0
1533222564.085,31.250,39.551,82.520,-13.672,54.688,0
1533222564.089,29.297,41.016,-68.848,-11.719,28.809,0
1533222564.093,20.996,38.574,-106.445,-12.695,39.551,0
1533222564.097,33.691,33.203,-11.230,-11.719,85.938,0
1533222564.100,57.617,31.738,54.199,-9.277,64.941,0
1533222564.104,61.523,35.156,-5.859,-6.348,32.227,0
1533222564.108,42.480,33.203,-96.680,-1.465,18.066,0
1533222564.112,29.785,28.809,-133.789,-11.230,13.672,0
1533222564.116,41.992,34.668,-51.758,-10.254,6.836,0
1533222564.120,52.246,42.480,58.594,5.859,0.000,0
1533222564.124,45.898,40.527,-2.441,4.395,15.137,0
1533222564.128,26.855,37.109,-64.941,-5.859,61.035,0
1533222564.132,9.277,42.480,-73.242,-8.301,39.062,0
1533222564.136,13.184,40.527,-114.258,-7.812,24.902,0
1533222564.140,28.809,35.156,-22.461,-5.371,-4.395,0
1533222564.143,44.922,35.645,83.984,4.395,-34.668,0
1533222564.147,40.527,41.016,-60.059,2.930,6.348,0
1533222564.151,23.438,43.457,-121.582,-2.930,10.254,0
1533222564.155,22.461,35.645,-103.027,-3.418,-38.574,0
1533222564.159,28.320,35.156,6.348,-4.395,-15.625,0
1533222564.163,35.156,38.574,49.316,-2.441,20.020,0
1533222564.167,27.832,38.086,-59.082,1.953,86.914,0
1533222564.171,10.742,38.574,-144.043,0.488,126.465,0
1533222564.175,7.812,41.504,-133.301,-6.836,19.043,0
1533222564.179,18.066,45.410,13.672,-5.859,-4.395,0
1533222564.183,34.668,48.828,73.242,3.418,23.438,0
1533222564.186,32.715,46.875,-44.922,4.395,71.777,0
1533222564.190,13.672,44.434,-114.258,-4.395,101.562,0
1533222564.194,11.230,45.410,-131.836,-6.836,66.406,0
1533222564.198,23.438,47.852,-66.406,-4.395,-11.230,0
1533222564.202,31.738,45.898,79.102,-5.371,2.930,0
1533222564.206,39.551,46.875,-17.090,-4.395,34.180,0
1533222564.210,26.855,46.875,-121.094,-1.465,13.184,0
1533222564.214,10.742,47.852,-102.539,-6.836,19.043,0
1533222564.218,28.320,47.363,-42.969,1.465,8.789,0
1533222564.222,51.758,47.363,53.711,14.648,2.930,0
1533222564.225,50.293,48.828,-19.531,2.441,2.441,0
1533222564.229,27.344,42.480,-116.211,-8.301,11.719,0
1533222564.233,8.789,44.434,-71.777,-5.859,13.184,0
1533222564.237,31.738,48.828,-74.219,5.859,-3.906,0
1533222564.241,54.199,43.457,32.227,10.254,24.414,0
1533222564.245,41.992,39.551,50.781,7.324,53.711,0
1533222564.249,27.344,41.504,-106.445,0.000,50.293,0
1533222564.253,22.461,41.504,-121.094,-2.441,23.438,0
1533222564.257,28.809,39.062,16.602,-0.977,11.719,0
1533222564.261,42.480,38.574,126.465,-1.953,35.156,0
1533222564.265,48.828,40.039,52.246,5.371,60.547,0
1533222564.268,31.250,36.133,-15.625,-0.488,61.035,0
1533222564.272,20.020,34.668,-20.508,-11.230,12.695,0
1533222564.276,28.809,40.039,5.371,-8.789,-25.879,0
1533222564.280,41.016,36.621,110.840,-7.812,0.000,0
1533222564.284,38.086,35.156,88.867,-3.906,35.156,0
1533222564.288,29.785,39.062,-7.324,-0.488,21.484,0
1533222564.292,18.066,38.574,-43.945,-11.719,9.766,0
1533222564.296,20.020,37.109,-29.297,-8.301,32.227,0
1533222564.300,41.504,38.574,67.871,4.883,91.797,0
1533222564.304,34.180,36.621,74.707,3.418,34.668,0
1533222564.308,14.648,39.062,-43.457,-2.441,7.812,0
1533222564.311,5.859,41.992,-92.285,-4.883,44.434,0
1533222564.315,18.066,42.480,-56.641,-9.766,60.547,0
1533222564.319,39.551,41.016,-22.949,-9.277,16.602,0
1533222564.323,41.016,39.062,84.961,-1.953,12.207,0
1533222564.327,34.668,39.062,4.395,5.371,12.695,0
1533222564.331,20.508,34.668,-98.145,8.789,-18.066,0
1533222564.335,16.602,35.156,-93.262,7.812,6.348,0
1533222564.339,44.434,41.016,-11.230,11.719,16.113,0
1533222564.343,59.570,39.062,77.148,16.602,36.621,0
1533222564.347,46.875,33.691,-34.180,12.207,40.039,0
1533222564.350,29.297,33.691,-94.727,6.836,55.664,0
1533222564.354,25.391,35.156,-105.469,2.441,33.203,0
1533222564.358,43.457,30.762,-36.621,4.395,-10.254,0
1533222564.362,58.594,28.320,66.895,9.766,19.531,0
1533222564.366,44.922,35.156,-0.488,11.719,37.109,0
1533222564.370,17.090,35.156,-92.773,4.395,61.523,0
1533222564.374,9.277,25.879,-121.094,-5.371,13.184,0
1533222564.378,43.945,25.879,-83.496,12.695,-58.594,0
1533222564.382,69.336,25.391,79.102,28.320,18.066,0
1533222564.386,23.438,25.391,37.109,-12.695,67.871,0
1533222564.390,-13.184,34.668,-120.117,-31.738,33.691,0
1533222564.393,-16.602,34.668,-132.812,-27.344,-1.465,0
1533222564.397,-15.137,30.273,-26.367,-38.574,-13.672,0
1533222564.401,-0.977,30.762,59.570,-34.668,36.133,0
1533222564.405,-7.812,28.320,-51.270,-39.062,31.738,0
1533222564.409,-30.273,25.391,-108.398,-53.223,-25.391,0
1533222564.413,-30.273,28.809,-78.613,-52.734,9.766,0
1533222564.417,-20.020,27.344,-33.691,-51.758,67.871,0
1533222564.421,-2.930,25.879,55.176,-47.852,22.949,0
1533222564.425,5.371,26.855,23.438,-34.180,38.086,0
1533222564.429,0.000,26.855,-109.375,-35.156,59.570,0
1533222564.432,-7.324,26.855,-133.301,-39.551,5.859,0
1533222564.436,1.465,27.344,-104.980,-36.133,-18.555,0
1533222564.440,15.137,26.855,8.789,-36.133,18.555,0
1533222564.444,17.090,28.320,58.594,-25.879,19.531,0
1533222564.448,11.719,27.344,-99.609,-22.461,-1.953,0
1533222564.452,-9.766,26.367,-141.113,-27.832,-27.832,0
1533222564.456,-3.418,27.344,-88.867,-20.996,25.391,0
1533222564.460,21.484,27.344,14.648,-19.531,30.273,0
1533222564.464,27.832,24.414,81.055,-18.066,-10.742,0
1533222564.468,21.973,25.879,-61.523,-14.160,44.434,0
1533222564.472,7.812,26.855,-125.000,-15.625,39.551,0
1533222564.475,14.648,29.785,-76.660,-17.090,44.434,0
1533222564.479,33.203,32.715,9.766,-10.254,55.664,0
1533222564.483,39.551,31.738,23.438,-3.906,2.930,0
1533222564.487,33.203,30.273,-65.918,-10.254,31.738,0
1533222564.491,15.137,30.273,-114.746,-16.113,15.137,0
1533222564.495,18.555,34.180,-102.539,-10.254,5.371,0
1533222564.499,27.344,32.227,-36.621,-3.418,25.879,0
1533222564.503,35.156,25.879,51.758,-5.859,38.086,0
1533222564.507,31.738,21.973,-67.871,-8.789,33.203,0
1533222564.511,5.371,24.414,-145.020,-6.836,-41.992,0
1533222564.515,7.324,29.297,-92.285,-7.324,-47.363,0
1533222564.518,31.250,24.902,-30.762,-9.766,-27.832,0
1533222564.522,46.875,21.973,67.383,-13.184,-17.578,0
1533222564.526,39.062,27.344,-26.855,-13.184,36.621,0
1533222564.530,23.926,30.273,-107.910,-14.160,25.879,0
1533222564.534,29.297,28.809,-102.539,-17.090,26.855,0
1533222564.538,37.109,28.809,-36.133,-18.555,80.566,0
1533222564.542,41.016,29.785,74.219,-9.766,50.781,0
1533222564.546,35.645,29.785,-27.344,-1.953,16.113,0
1533222564.550,22.461,26.855,-100.586,-7.324,52.734,0
1533222564.554,18.555,26.367,-58.594,-13.672,63.965,0
1533222564.557,33.691,28.320,-62.012,-12.695,60.547,0
1533222564.561,47.363,32.227,34.668,-8.789,59.082,0
1533222564.565,41.016,31.250,14.160,-7.812,42.969,0
1533222564.569,19.043,30.762,-102.539,-6.836,31.738,0
1533222564.573,17.578,33.203,-87.891,-6.836,10.254,0
1533222564.577,27.344,33.203,-21.973,-4.395,-6.836,0
1533222564.581,39.551,35.156,55.176,1.953,7.812,0
1533222564.585,41.016,33.691,18.555,5.371,6.836,0
1533222564.589,25.391,36.621,-89.844,3.418,36.133,0
1533222564.593,16.113,34.668,-128.418,0.488,44.434,0
1533222564.597,25.879,32.715,-100.586,-1.465,1.465,0
1533222564.600,47.363,35.156,31.250,-3.906,35.156,0
1533222564.604,50.293,33.203,77.148,2.930,83.496,0
1533222564.608,26.855,31.250,-89.355,7.324,70.312,0
1533222564.612,3.418,26.855,-126.465,-1.953,5.859,0
1533222564.616,4.883,24.414,-56.641,-1.953,-29.785,0
1533222564.620,33.691,28.809,20.020,5.371,-0.488,0
1533222564.624,36.621,33.203,16.602,2.930,70.801,0
1533222564.628,20.020,32.715,-75.684,-2.930,52.246,0
1533222564.632,22.949,34.180,-114.258,-2.930,29.297,0
1533222564.636,28.809,36.133,-104.980,-4.395,3.906,0
1533222564.640,39.551,34.668,-25.391,0.000,-40.039,0
1533222564.643,45.898,33.203,33.203,7.812,4.395,0
1533222564.647,33.203,31.738,-38.086,2.930,42.480,0
1533222564.651,20.996,32.227,-77.637,-4.883,81.543,0
1533222564.655,26.367,36.621,-127.930,-5.859,76.172,0
1533222564.659,36.621,36.621,-45.410,-1.953,-18.555,0
1533222564.663,39.551,43.945,63.477,2.441,8.789,0
1533222564.667,30.273,50.781,-73.242,0.977,18.555,0
1533222564.671,14.648,47.363,-123.535,-1.465,8.301,0
1533222564.675,6.348,50.781,-132.812,-8.301,26.367,0
1533222564.679,19.043,51.758,-48.828,-16.113,-1.953,0
1533222564.682,32.227,50.781,80.078,-15.625,30.762,0
1533222564.686,21.484,56.641,-78.613,-14.160,-1.465,0
1533222564.690,-0.488,58.105,-132.812,-19.531,-4.395,0
1533222564.694,-4.883,54.688,-92.773,-22.949,13.672,0
1533222564.698,17.578,57.617,-75.684,-13.672,-13.184,0
1533222564.702,32.227,54.688,65.430,-14.648,1.465,0
1533222564.706,33.203,54.688,7.812,-16.602,48.828,0
1533222564.710,17.578,57.617,-147.949,-8.789,17.090,0
1533222564.714,12.695,53.711,-129.395,-6.836,-18.555,0
1533222564.718,41.504,56.152,-30.762,-6.348,-14.648,0
1533222564.722,49.316,59.570,48.340,-3.418,-12.695,0
1533222564.725,32.715,57.129,-16.602,-1.465,25.391,0
1533222564.729,22.461,57.617,-125.000,-0.977,52.734,0
1533222564.733,20.996,56.641,-170.898,-2.930,6.348,0
1533222564.737,20.020,50.293,-53.711,-4.883,-24.414,0
1533222564.741,28.809,45.898,60.059,0.977,-6.348,0
1533222564.745,32.715,48.340,4.883,0.000,8.301,0
1533222564.749,18.066,49.805,-92.285,-7.324,91.309,0
1533222564.753,13.672,49.805,-136.719,-8.789,80.078,0
1533222564.757,23.438,49.316,-85.938,-8.301,7.812,0
1533222564.761,33.203,47.363,32.227,-4.395,12.695,0
1533222564.765,43.945,47.852,24.414,1.465,37.598,0
1533222564.768,36.621,46.875,-94.727,-3.418,70.312,0
1533222564.772,17.090,43.457,-114.746,-14.160,74.707,0
1533222564.776,22.461,43.945,-79.102,-11.719,95.703,0
1533222564.780,35.645,44.434,-9.766,-6.348,95.703,0
1533222564.784,40.527,47.852,1.953,-5.859,39.062,0
1533222564.788,28.320,42.969,-80.078,-7.324,32.715,0
1533222564.792,12.695,41.504,-108.398,-13.184,79.102,0
1533222564.796,19.531,40.039,-116.699,-12.695,53.223,0
1533222564.800,40.527,39.551,-41.992,-10.254,87.402,0
1533222564.804,55.176,45.410,63.477,-10.254,75.195,0
1533222564.807,35.645,45.898,-62.988,-10.742,11.719,0
1533222564.811,13.672,44.922,-145.508,-10.742,-25.391,0
1533222564.815,15.625,41.992,-104.980,-6.836,-62.012,0
1533222564.819,36.133,41.504,12.695,-6.348,-17.090,0
1533222564.823,48.828,44.434,20.020,-2.441,-41.016,0
1533222564.827,42.480,40.039,-106.934,0.000,-73.242,0
1533222564.831,35.645,38.574,-87.891,-4.883,-9.277,0
1533222564.835,22.461,35.645,-96.191,-4.883,37.109,0
1533222564.839,25.391,30.273,-60.059,-11.719,18.066,0
1533222564.843,35.156,31.738,77.637,-10.742,43.945,0
1533222564.847,27.344,34.180,-47.852,-9.277,35.156,0
1533222564.850,14.648,35.156,-114.258,-18.555,33.203,0
1533222564.854,3.906,36.133,-121.582,-27.832,47.363,0
1533222564.858,21.484,35.156,-65.918,-20.996,-54.688,0
1533222564.862,31.250,31.738,40.527,-15.625,-3.418,0
1533222564.866,21.973,35.645,-56.641,-20.996,8.789,0
1533222564.870,14.648,39.551,-139.648,-17.090,-33.203,0
1533222564.874,8.789,34.668,-137.207,-22.461,40.527,0
1533222564.878,24.902,33.691,-7.324,-18.066,48.340,0
1533222564.882,39.551,32.715,76.660,-9.766,68.848,0
1533222564.886,38.086,27.832,-35.645,-6.836,55.664,0
1533222564.890,24.414,30.273,-140.625,-2.441,0.977,0
1533222564.893,15.625,32.715,-141.113,-6.348,1.953,0
1533222564.897,34.668,33.203,-34.668,-1.465,43.945,0
1533222564.901,49.316,40.039,49.316,2.441,81.055,0
1533222564.905,43.945,39.551,-28.809,1.953,57.617,0
1533222564.909,29.785,33.691,-104.492,-0.977,6.348,0
1533222564.913,21.973,33.691,-127.441,-3.418,28.320,0
1533222564.917,27.344,30.762,-73.242,-1.465,16.602,0
1533222564.921,41.504,30.273,11.719,-3.906,-5.371,0
1533222564.925,40.527,33.691,14.648,-1.465,46.387,0
1533222564.929,18.555,34.668,-78.613,-0.977,72.266,0
1533222564.932,3.418,30.762,-126.953,-4.395,19.043,0
1533222564.936,11.719,30.273,-131.836,-5.859,-15.137,0
1533222564.940,29.785,31.250,-28.809,-7.324,2.930,0
1533222564.944,33.203,30.762,74.219,-9.766,22.461,0
1533222564.948,16.602,26.367,-69.824,-9.766,34.180,0
1533222564.952,-0.488,23.438,-158.203,-9.766,-7.324,0
1533222564.956,3.418,24.902,-100.586,-12.695,-51.270,0
1533222564.960,22.461,26.855,12.695,-5.371,-10.254,0
1533222564.964,34.668,28.320,7.812,9.766,42.480,0
1533222564.968,26.855,28.809,-110.840,9.277,60.547,0
1533222564.972,12.207,28.320,-133.301,3.418,17.578,0
1533222564.975,12.207,29.785,-114.746,6.348,-3.418,0
1533222564.979,23.926,23.438,-39.062,5.859,-43.945,0
1533222564.983,35.645,18.555,81.055,4.395,-40.039,0
1533222564.987,30.273,25.879,-37.598,6.836,26.367,0
1533222564.991,17.578,25.879,-117.676,2.441,75.195,0
1533222564.995,21.484,24.902,-139.648,-0.488,54.199,0
1533222564.999,28.320,25.391,-45.410,-3.906,-0.977,0
1533222565.003,32.227,26.855,39.551,1.465,64.941,0
1533222565.007,22.461,25.391,-74.219,6.348,51.270,0
1533222565.011,4.883,23.926,-152.832,-1.465,-7.324,0
1533222565.015,12.207,30.273,-141.113,-3.418,47.363,0
1533222565.018,38.574,30.273,-56.152,-1.465,70.312,0
1533222565.022,45.898,30.762,56.152,-0.488,-15.137,0
1533222565.026,25.879,32.227,2.441,0.977,-38.086,0
1533222565.030,9.277,30.762,-120.117,-4.395,13.184,0
1533222565.034,13.672,35.156,-132.812,-10.742,2.930,0
1533222565.038,30.762,32.715,-34.180,-12.207,23.438,0
1533222565.042,48.340,31.250,45.898,0.000,59.570,0
1533222565.046,41.992,33.203,-41.504,1.465,41.504,0
1533222565.050,27.344,33.691,-133.789,-6.348,-0.488,0
1533222565.054,21.973,32.227,-121.582,-6.348,-5.859,0
1533222565.057,28.320,33.203,-44.434,-11.719,-9.277,0
1533222565.061,50.781,34.668,11.719,-7.324,19.043,0
1533222565.065,47.363,31.250,3.418,2.441,59.570,0
1533222565.069,23.438,26.855,-60.547,0.488,69.336,0
1533222565.073,16.602,27.344,-145.508,-6.348,52.246,0
1533222565.077,22.949,26.855,-52.246,-8.301,30.273,0
1533222565.081,46.875,29.297,88.379,6.348,39.551,0
1533222565.085,61.523,40.039,14.648,18.555,59.570,0
1533222565.089,40.039,41.504,-97.656,12.207,59.570,0
1533222565.093,22.461,34.668,-117.676,2.441,31.738,0
1533222565.097,33.691,30.762,-120.117,0.000,15.625,0
1533222565.100,45.898,31.250,32.715,5.859,88.379,0
1533222565.104,53.711,32.715,45.410,9.277,83.008,0
1533222565.108,40.039,32.227,-124.512,2.441,22.949,0
1533222565.112,25.391,32.227,-103.516,-2.441,52.246,0
1533222565.116,30.273,31.738,-57.617,-1.953,48.340,0
1533222565.120,47.363,29.785,43.945,0.000,81.543,0
1533222565.124,56.152,29.297,29.297,-0.977,42.969,0
1533222565.128,48.340,35.645,-104.492,3.418,-34.180,0
1533222565.132,50.293,44.434,-114.746,10.254,-26.855,0
1533222565.136,52.734,46.387,-98.633,6.348,-42.969,0
1533222565.139,58.594,42.969,9.277,8.301,9.766,0
1533222565.143,62.988,39.062,94.238,13.672,51.270,0
1533222565.147,50.293,37.109,-61.035,7.324,65.430,0
1533222565.151,37.598,38.574,-133.301,8.301,32.715,0
1533222565.155,29.297,38.086,-127.930,7.324,20.020,0
1533222565.159,51.270,34.668,-23.926,0.000,26.367,0
1533222565.163,55.664,33.203,107.422,0.000,-12.207,0
1533222565.167,35.156,35.156,-2.441,2.930,40.039,0
1533222565.171,31.250,34.668,-111.816,3.418,70.312,0
1533222565.175,35.156,31.738,-105.469,-2.441,55.176,0
1533222565.179,45.898,31.738,-31.250,-3.418,51.270,0
1533222565.182,54.199,30.762,57.617,0.000,69.824,0
1533222565.186,45.898,27.832,-49.316,2.441,64.453,0
1533222565.190,33.203,31.738,-128.906,0.000,-18.555,0
1533222565.194,37.109,39.062,-51.758,0.977,82.520,0
1533222565.198,46.387,39.062,-20.996,7.324,140.625,0
1533222565.202,44.434,30.762,13.184,2.930,44.922,0
1533222565.206,35.645,27.344,-11.719,-8.789,48.340,0
1533222565.210,26.855,33.203,-85.449,-8.789,34.180,0
1533222565.214,18.066,36.133,-115.723,-3.418,-12.695,0
1533222565.218,19.531,34.180,-88.379,-6.836,-40.039,0
1533222565.222,45.410,38.574,57.617,0.977,19.531,0
1533222565.225,50.293,42.480,53.711,9.277,67.871,0
1533222565.229,23.926,33.691,-127.930,-1.465,-15.625,0
1533222565.233,9.277,24.414,-152.832,-7.812,-128.906,0
1533222565.237,14.648,22.949,-14.648,-2.441,-42.969,0
1533222565.241,32.227,22.949,30.762,0.488,14.648,0
1533222565.245,40.527,20.996,-39.551,-2.930,-35.645,0
1533222565.249,23.438,20.996,-113.770,-6.348,-23.438,0
1533222565.253,17.578,20.996,-114.258,-5.371,0.000,0
1533222565.257,27.344,22.461,-60.547,-7.324,15.625,0
1533222565.261,37.109,24.902,31.738,-4.395,4.883,0
1533222565.264,37.598,23.438,27.344,0.000,-4.395,0
1533222565.268,23.438,22.949,-89.355,-7.324,23.926,0
1533222565.272,17.578,25.391,-106.445,-12.207,44.922,0
1533222565.276,15.137,22.949,-129.883,-14.160,26.367,0
1533222565.280,31.250,23.926,-18.066,-11.230,17.090,0
1533222565.284,45.898,23.438,53.711,-4.395,14.648,0
1533222565.288,21.484,20.996,-97.656,-6.836,27.832,0
1533222565.292,0.488,18.555,-143.555,-16.602,31.738,0
1533222565.296,17.090,23.438,-154.297,-21.973,58.105,0
1533222565.300,38.086,26.855,-22.461,-20.508,62.988,0
1533222565.304,44.922,26.855,82.031,-13.184,33.691,0
1533222565.307,33.203,28.320,-59.082,-7.812,21.973,0
1533222565.311,16.602,28.320,-136.719,-9.766,36.133,0
1533222565.315,22.949,28.320,-142.578,-11.230,1.953,0
1533222565.319,36.133,27.832,-18.066,-5.859,-17.090,0
1533222565.323,40.527,27.832,22.949,-3.418,0.488,0
1533222565.327,28.320,32.227,-100.098,0.977,-21.484,0
1533222565.331,17.090,34.180,-146.484,0.977,-21.484,0
1533222565.335,20.020,33.691,-127.930,-12.207,4.883,0
1533222565.339,43.457,33.203,-39.062,-17.090,26.855,0
1533222565.343,57.129,32.715,11.230,-14.160,35.156,0
1533222565.347,31.738,32.227,-66.895,-11.230,38.574,0
1533222565.350,5.859,29.297,-109.863,-12.207,13.672,0
1533222565.354,18.555,32.715,-130.371,-10.742,38.086,0
1533222565.358,39.551,31.738,-50.293,-10.254,51.270,0
1533222565.362,53.223,29.785,50.293,-14.160,36.133,0
1533222565.366,51.758,33.203,-59.082,-13.672,1.953,0
1533222565.370,29.297,31.250,-133.789,-9.766,23.438,0
1533222565.374,12.207,24.902,-135.742,-5.371,97.168,0
1533222565.378,28.320,24.902,-106.445,-6.348,48.828,0
1533222565.382,47.363,21.973,43.457,-4.883,-25.879,0
1533222565.386,40.527,25.879,5.371,4.883,20.020,0
1533222565.389,26.367,35.156,-157.715,7.812,48.340,0
1533222565.393,14.160,29.297,-135.254,-2.930,7.812,0
1533222565.397,17.578,26.367,-82.520,-10.254,18.555,0
1533222565.401,25.879,28.320,36.133,-6.348,39.062,0
1533222565.405,28.809,26.855,45.898,0.488,63.477,0
1533222565.409,17.578,26.855,-121.094,-5.859,70.801,0
1533222565.413,4.883,26.855,-159.180,-10.742,50.781,0
1533222565.417,13.184,29.785,-53.223,-4.883,10.742,0
1533222565.421,35.645,33.691,42.480,-8.301,3.906,0
1533222565.425,33.691,30.762,-16.113,-11.719,-16.113,0
1533222565.429,10.254,30.273,-96.680,-8.789,25.879,0
1533222565.432,3.418,30.273,-137.207,-11.719,80.078,0
1533222565.436,19.043,31.250,-146.484,-10.742,18.066,0
1533222565.440,31.250,29.297,24.902,-8.789,81.055,0
1533222565.444,29.785,26.855,48.828,-9.277,106.445,0
1533222565.448,19.531,31.250,-116.699,-10.254,29.785,0
1533222565.452,5.859,31.738,-135.742,-15.137,23.926,0
1533222565.456,8.301,30.273,-115.723,-11.719,93.750,0
1533222565.460,32.227,34.180,-30.273,-1.465,66.895,0
1533222565.464,43.457,33.691,32.715,-1.465,-9.277,0
1533222565.468,36.133,33.203,-88.379,-1.953,15.625,0
1533222565.472,17.578,32.227,-145.508,-1.465,56.152,0
1533222565.475,7.324,23.438,-101.074,-9.277,84.473,0
1533222565.479,24.902,20.996,-41.504,-6.836,23.926,0
1533222565.483,39.062,26.855,-12.695,-2.930,-9.277,0
1533222565.487,32.227,30.273,-85.449,-4.395,9.277,0
1533222565.491,17.578,32.715,-110.352,-6.348,43.945,0
1533222565.495,14.648,27.832,-141.602,-10.742,52.734,0
1533222565.499,24.902,22.461,-55.176,-8.789,35.645,0
1533222565.503,37.109,23.438,54.199,-5.859,63.477,0
1533222565.507,26.855,27.344,-75.195,-4.395,71.777,0
1533222565.511,7.324,29.297,-148.438,-5.371,46.387,0
1533222565.514,6.348,27.832,-160.156,-9.277,-23.926,0
1533222565.518,28.320,31.250,-59.082,-7.324,-8.789,0
1533222565.522,39.062,32.227,78.125,-6.348,41.992,0
1533222565.526,28.809,27.832,-48.340,-6.348,31.738,0
1533222565.530,11.230,24.902,-130.859,-12.695,48.828,0
1533222565.534,1.953,25.391,-115.234,-18.066,76.660,0
1533222565.538,23.926,24.902,-26.367,-14.160,43.457,0
1533222565.542,39.551,24.414,63.477,-13.184,49.805,0
1533222565.546,29.297,23.438,-18.066,-13.184,43.457,0
1533222565.550,16.113,21.973,-106.934,-11.719,45.898,0
1533222565.554,15.625,25.391,-133.301,-15.137,10.742,0
1533222565.557,28.809,26.367,-75.195,-18.066,-4.883,0
1533222565.561,44.434,24.414,59.082,-15.137,90.332,0
1533222565.565,47.363,28.809,2.441,-6.836,54.688,0
1533222565.569,22.461,29.785,-125.977,-7.324,22.949,0
1533222565.573,15.137,27.832,-150.879,-9.277,17.090,0
1533222565.577,38.086,32.227,-83.496,0.488,3.906,0
1533222565.581,64.453,39.062,37.598,13.184,27.344,0
1533222565.585,68.359,39.062,5.371,20.996,35.645,0
1533222565.589,32.715,30.273,-71.289,3.418,62.988,0
1533222565.593,14.648,25.879,-121.094,-6.836,86.426,0
1533222565.597,35.156,27.832,-82.031,5.859,58.105,0
1533222565.600,51.270,34.180,29.785,11.230,37.109,0
1533222565.604,52.246,35.156,13.672,11.719,20.996,0
1533222565.608,29.785,33.203,-82.520,5.859,34.180,0
1533222565.612,15.137,33.691,-109.863,-0.488,82.520,0
1533222565.616,25.879,34.668,-122.559,-1.953,125.977,0
1533222565.620,44.434,35.645,-32.715,-0.488,84.961,0
1533222565.624,54.688,34.668,21.973,6.836,24.902,0
1533222565.628,42.480,32.715,-83.984,2.441,6.348,0
1533222565.632,24.902,35.156,-82.520,-4.395,30.273,0
1533222565.636,27.344,32.715,-133.789,-6.348,68.359,0
1533222565.639,37.109,30.273,-55.664,-9.277,39.062,0
1533222565.643,49.316,32.227,88.867,-4.883,15.625,0
1533222565.647,37.109,29.297,-65.918,-3.418,-27.344,0
1533222565.651,21.973,30.762,-143.555,-6.836,-53.223,0
1533222565.655,27.832,33.691,-119.141,-6.348,1.465,0
1533222565.659,42.969,33.691,-9.277,0.977,48.828,0
1533222565.663,53.223,34.668,53.711,7.812,72.754,0
1533222565.667,36.133,37.598,-78.613,4.395,46.387,0
1533222565.671,25.391,42.480,-167.480,4.883,19.043,0
1533222565.675,31.738,39.551,-138.184,8.301,28.320,0
1533222565.679,43.945,39.551,-46.387,2.930,-2.441,0
1533222565.682,60.547,44.922,73.730,7.324,-22.949,0
1533222565.686,50.781,41.992,-18.555,12.207,-14.648,0
1533222565.690,30.762,43.457,-135.254,5.859,-59.082,0
1533222565.694,27.832,46.387,-119.629,-0.488,3.418,0
1533222565.698,34.668,42.480,-31.738,-7.812,26.367,0
1533222565.702,45.410,39.062,51.270,-6.836,-38.086,0
1533222565.706,43.457,39.062,-20.996,-3.906,-30.762,0
1533222565.710,17.090,37.598,-117.188,-8.301,-15.137,0
1533222565.714,-1.465,31.738,-129.395,-13.672,-3.906,0
1533222565.718,16.602,27.832,-53.223,-14.160,15.137,0
1533222565.721,39.062,32.715,55.664,-11.230,-24.414,0
1533222565.725,37.598,36.621,14.160,-8.789,-11.719,0
1533222565.729,24.414,38.086,-112.305,-1.465,12.695,0
1533222565.733,20.508,38.086,-109.863,1.953,7.812,0
1533222565.737,28.809,33.203,-69.336,-4.395,90.820,0
1533222565.741,41.992,35.156,30.273,2.930,95.215,0
1533222565.745,54.199,39.551,32.227,11.719,-9.766,0
1533222565.749,38.086,41.504,-93.750,3.418,48.340,0
1533222565.753,14.648,40.039,-132.324,2.441,69.824,0
1533222565.757,23.926,40.039,-19.531,7.324,21.484,0
1533222565.761,53.223,43.945,59.082,9.277,25.879,0
1533222565.764,70.312,44.922,-16.113,12.207,1.953,0
1533222565.768,52.734,48.828,-75.684,11.719,20.508,0
1533222565.772,39.062,47.852,-87.402,4.395,31.738,0
1533222565.776,48.828,41.992,-120.605,0.000,12.695,0
1533222565.780,57.617,43.945,9.766,4.395,14.160,0
1533222565.784,45.410,44.922,112.793,13.184,95.215,0
1533222565.788,19.531,41.504,-79.590,7.324,74.707,0
1533222565.792,5.371,38.086,-156.250,-0.488,-2.930,0
1533222565.796,17.090,39.551,-108.887,2.930,-15.137,0
1533222565.800,40.039,39.551,16.113,6.348,-39.551,0
1533222565.804,46.387,34.668,52.734,5.859,2.930,0
1533222565.807,37.109,35.156,-71.777,3.906,35.156,0
1533222565.811,25.879,41.016,-134.766,6.836,22.461,0
1533222565.815,17.578,38.574,-99.121,7.812,-0.488,0
1533222565.819,26.367,33.203,19.043,7.324,38.086,0
1533222565.823,40.527,33.691,72.266,15.137,39.551,0
1533222565.827,34.180,33.203,-47.363,15.625,15.625,0
1533222565.831,20.996,34.668,-116.699,5.859,10.742,0
1533222565.835,22.461,39.551,-131.348,-2.441,30.273,0
1533222565.839,39.551,38.574,-43.945,-4.883,34.668,0
1533222565.843,44.922,39.062,104.980,-1.953,58.594,0
1533222565.846,39.062,40.039,-4.883,-4.883,92.285,0
1533222565.850,26.855,41.016,-115.234,-5.371,67.383,0
1533222565.854,21.973,41.992,-124.023,-4.883,51.758,0
1533222565.858,35.156,37.109,-46.875,-3.418,69.336,0
1533222565.862,50.781,34.668,43.945,1.953,87.402,0
1533222565.866,55.176,38.574,-16.113,3.418,39.062,0
1533222565.870,33.691,38.574,-102.051,-1.953,-12.207,0
1533222565.874,21.484,38.574,-114.258,-1.953,-10.254,0
1533222565.878,28.320,37.598,-84.473,-2.930,33.691,0
1533222565.882,48.828,38.574,35.156,-1.465,32.227,0
1533222565.886,48.340,32.227,24.902,3.418,12.207,0
1533222565.889,28.809,32.227,-106.445,3.906,4.883,0
1533222565.893,22.949,36.133,-130.371,-0.977,34.180,0
1533222565.897,33.203,31.250,-52.246,-0.977,82.031,0
1533222565.901,51.270,34.668,35.645,1.465,95.215,0
1533222565.905,53.223,35.645,-24.902,0.488,105.957,0
1533222565.909,32.227,28.809,-103.516,-1.465,74.219,0
1533222565.913,15.625,25.879,-99.609,-8.789,32.227,0
1533222565.917,29.785,28.809,-122.559,-7.324,40.527,0
1533222565.921,50.781,29.785,-35.645,-5.859,15.137,0
1533222565.925,44.922,30.762,29.297,-6.348,-78.613,0
1533222565.929,26.855,34.668,-70.801,-1.465,-115.234,0
1533222565.932,19.531,32.715,-98.633,-1.953,-7.812,0
1533222565.936,19.043,27.344,-60.059,-6.836,89.844,0
1533222565.940,41.504,28.809,21.484,-3.418,72.754,0
1533222565.944,58.594,33.203,-4.883,-0.977,-30.273,0
1533222565.948,41.016,34.668,-100.098,-3.906,-59.082,0
1533222565.952,25.879,36.621,-137.207,-4.883,28.809,0
1533222565.956,29.785,37.109,-149.414,-4.883,18.555,0
1533222565.960,47.852,39.062,10.742,-3.418,21.973,0
1533222565.964,56.152,40.039,104.492,-1.953,40.527,0
1533222565.968,39.062,36.133,-61.035,-4.883,25.391,0
1533222565.971,21.484,29.785,-127.441,-17.090,85.449,0
1533222565.975,23.926,32.715,-146.484,-19.531,56.641,0
1533222565.979,32.715,34.668,-28.320,-16.113,-46.387,0
1533222565.983,41.992,34.180,72.266,-13.672,-47.852,0
1533222565.987,36.621,33.203,-42.480,-10.742,21.484,0
1533222565.991,19.043,33.203,-128.906,-11.719,25.391,0
1533222565.995,18.555,36.621,-134.277,-11.230,4.395,0
1533222565.999,30.762,32.227,-41.992,-10.254,34.180,0
1533222566.003,46.387,33.203,59.082,-2.930,64.453,0
1533222566.007,41.504,34.668,-25.879,1.953,17.090,0
1533222566.011,26.855,34.180,-113.281,-1.465,-47.363,0
1533222566.014,36.621,37.109,-125.000,-4.395,-42.969,0
1533222566.018,59.570,40.527,-80.078,-3.906,-45.898,0
1533222566.022,67.871,40.527,61.035,0.000,-12.207,0
1533222566.026,67.383,41.016,15.137,2.441,37.109,0
1533222566.030,48.828,41.504,-103.516,-0.488,92.285,0
1533222566.034,36.133,41.992,-176.270,-2.930,-0.977,0
1533222566.038,41.016,36.621,-32.227,-3.418,-31.738,0
1533222566.042,56.152,30.273,56.641,3.418,49.316,0
1533222566.046,57.129,31.738,-74.707,2.930,-11.230,0
1533222566.050,28.320,35.156,-92.285,-9.277,43.457,0
1533222566.054,10.742,34.668,-110.352,-14.648,68.848,0
1533222566.057,16.602,30.273,-56.641,-15.625,29.785,0
1533222566.061,34.668,28.809,57.617,-13.184,43.457,0
1533222566.065,39.551,36.621,7.324,-5.859,96.680,0
1533222566.069,23.438,38.086,-129.395,-10.742,85.449,0
1533222566.073,20.020,34.180,-148.926,-14.160,55.176,0
1533222566.077,31.250,34.668,-66.895,-11.719,24.414,0
1533222566.081,47.363,33.203,54.688,-4.883,17.090,0
1533222566.085,54.688,33.691,19.043,1.953,59.082,0
1533222566.089,28.809,32.715,-140.625,-6.836,-34.668,0
1533222566.093,9.277,27.832,-146.484,-7.812,-63.965,0
1533222566.096,25.879,27.832,-89.355,-5.371,29.785,0
1533222566.100,51.270,33.203,-29.785,-3.418,23.926,0
1533222566.104,52.734,34.668,73.242,0.977,49.316,0
1533222566.108,37.109,32.227,-38.574,-5.859,83.496,0
1533222566.112,20.020,32.715,-155.273,-14.648,56.641,0
1533222566.116,20.996,32.715,-106.445,-15.137,33.691,0
1533222566.120,37.598,30.273,12.207,-17.090,33.691,0
1533222566.124,55.664,34.180,40.039,-9.766,79.590,0
1533222566.128,50.781,36.621,-91.797,-6.348,66.895,0
1533222566.132,23.438,32.715,-147.461,-12.695,45.410,0
1533222566.136,23.926,33.203,-141.113,-11.230,22.949,0
1533222566.139,44.922,34.180,-35.156,-10.254,9.766,0
1533222566.143,54.199,34.180,46.387,-6.348,89.355,0
1533222566.147,42.969,35.156,-75.195,-6.348,53.711,0
1533222566.151,23.438,32.715,-117.676,-10.742,12.695,0
1533222566.155,22.461,32.715,-144.531,-14.648,0.488,0
1533222566.159,40.039,37.109,-70.801,-15.137,-17.090,0
1533222566.163,61.523,37.109,93.750,-16.113,24.902,0
1533222566.167,53.223,34.668,-41.016,-18.066,6.836,0
1533222566.171,30.273,36.621,-140.625,-14.648,-26.367,0
1533222566.175,19.531,38.574,-137.207,-16.113,9.766,0
1533222566.179,26.855,38.086,-46.875,-18.555,39.551,0
1533222566.182,42.480,36.133,33.203,-17.090,54.199,0
1533222566.186,45.898,36.133,-85.938,-17.090,30.273,0
1533222566.190,34.668,38.574,-118.652,-17.090,26.855,0
1533222566.194,24.902,37.109,-131.348,-16.602,36.133,0
1533222566.198,39.551,37.109,-48.828,-12.207,96.680,0
1533222566.202,56.152,34.668,24.414,-9.277,93.750,0
1533222566.206,51.758,33.203,-52.734,-11.719,37.109,0
1533222566.210,38.574,36.133,-119.629,-11.230,20.996,0
1533222566.214,34.668,36.133,-169.922,-9.277,-40.039,0
1533222566.218,39.062,33.203,-55.664,-9.766,-19.531,0
1533222566.221,54.688,34.180,43.945,-8.301,-9.766,0
1533222566.225,63.477,38.086,-4.883,-1.465,-27.832,0
1533222566.229,43.945,39.551,-118.652,1.953,4.395,0
1533222566.233,32.227,39.062,-171.875,-1.953,10.254,0
1533222566.237,51.758,37.598,-125.488,-6.836,-13.184,0
1533222566.241,63.965,38.574,10.742,-11.719,10.742,0
1533222566.245,61.523,41.016,67.871,-8.789,31.250,0
1533222566.249,49.805,37.598,-90.820,-9.277,9.277,0
1533222566.253,28.809,38.574,-144.531,-18.066,44.434,0
1533222566.257,31.738,41.504,-79.590,-18.066,23.438,0
1533222566.261,48.828,36.621,11.719,-10.254,-48.340,0
1533222566.264,56.152,36.621,24.902,-11.230,13.672,0
1533222566.268,50.293,40.039,-67.383,-4.395,79.590,0
1533222566.272,37.598,39.062,-166.504,-1.465,26.367,0
1533222566.276,38.086,38.574,-109.863,-5.371,17.578,0
1533222566.280,49.316,38.574,-5.371,-0.977,27.344,0
1533222566.284,51.758,38.574,25.391,-0.977,1.465,0
1533222566.288,42.969,42.969,-46.875,-0.977,29.297,0
1533222566.292,25.879,42.969,-140.625,-6.348,55.176,0
1533222566.296,26.367,40.527,-153.320,-3.906,22.461,0
1533222566.300,43.945,37.109,-22.949,-0.977,39.551,0
1533222566.304,48.828,33.691,29.785,-5.859,33.691,0
1533222566.307,41.992,37.109,-83.008,-3.906,11.230,0
1533222566.311,32.227,38.574,-127.441,-4.883,32.715,0
1533222566.315,21.484,31.738,-175.781,-12.207,10.254,0
1533222566.319,31.250,31.250,-41.016,-8.789,25.879,0
1533222566.323,53.223,35.645,75.684,-2.930,23.926,0
1533222566.327,39.551,30.762,-86.914,-3.418,11.719,0
1533222566.331,24.414,27.344,-120.117,-6.348,33.691,0
1533222566.335,24.902,29.297,-141.113,-9.277,5.371,0
1533222566.339,30.762,29.297,-87.891,-7.812,39.551,0
1533222566.343,44.922,30.762,57.617,-4.395,54.199,0
1533222566.346,37.109,28.809,-20.996,-6.348,23.926,0
1533222566.350,17.090,24.414,-125.488,-10.742,69.824,0
1533222566.354,16.602,27.832,-178.711,-7.324,16.113,0
1533222566.358,31.250,29.297,-65.918,-1.465,-26.367,0
1533222566.362,51.758,27.832,50.781,4.395,48.340,0
1533222566.366,52.246,32.715,-45.898,5.859,47.363,0
1533222566.370,33.203,34.668,-154.785,4.395,28.809,0
1533222566.374,26.367,33.691,-172.363,3.418,54.688,0
1533222566.378,38.086,33.691,-110.840,-4.395,77.637,0
1533222566.382,57.617,33.203,31.738,3.418,50.293,0
1533222566.386,55.176,29.785,20.020,13.672,17.090,0
1533222566.389,35.645,32.227,-130.371,5.371,-3.418,0
1533222566.393,23.438,32.227,-142.578,-1.465,1.465,0
1533222566.397,30.762,31.738,-67.383,0.000,12.695,0
1533222566.401,45.410,33.203,41.016,5.859,20.508,0
1533222566.405,52.734,35.645,4.883,11.230,68.848,0
1533222566.409,40.039,37.109,-125.000,9.766,45.410,0
1533222566.413,27.344,34.668,-146.484,2.441,46.387,0
1533222566.417,33.203,31.738,-81.055,4.883,68.359,0
1533222566.421,44.922,30.273,4.395,8.789,73.730,0
1533222566.425,49.316,32.227,10.742,8.301,57.617,0
1533222566.428,32.227,35.156,-100.098,5.371,19.043,0
1533222566.432,22.461,39.062,-123.047,-0.488,30.273,0
1533222566.436,35.156,40.527,-128.906,-1.953,43.457,0
1533222566.440,46.387,34.668,-19.531,5.371,1.953,0
1533222566.444,48.828,32.715,76.660,1.953,-27.344,0
1533222566.448,45.410,35.645,-69.336,0.488,41.992,0
1533222566.452,37.598,38.086,-133.301,4.395,83.496,0
1533222566.456,38.086,39.062,-126.465,0.488,41.504,0
1533222566.460,61.523,34.180,15.625,3.906,17.090,0
1533222566.464,69.336,32.715,21.973,4.395,-2.930,0
1533222566.468,47.852,34.668,-127.441,3.906,-19.043,0
1533222566.471,35.156,35.156,-105.957,4.883,18.066,0
1533222566.475,32.227,32.227,-122.070,-2.930,47.852,0
1533222566.479,44.922,35.645,-41.992,-7.324,20.508,0
1533222566.483,57.617,37.598,91.797,-5.371,6.836,0
1533222566.487,41.992,35.645,-63.477,-7.324,-11.230,0
1533222566.491,24.414,36.133,-121.582,-11.719,-45.898,0
1533222566.495,28.809,32.715,-132.812,-18.066,-46.875,0
1533222566.499,44.434,31.738,-56.641,-13.672,-30.273,0
1533222566.503,50.293,29.297,39.551,-7.812,7.812,0
1533222566.507,37.109,28.809,-62.500,-9.766,29.785,0
1533222566.511,22.949,30.762,-147.949,-12.207,5.371,0
1533222566.514,16.602,32.715,-158.691,-17.578,26.855,0
1533222566.518,29.297,34.180,-78.613,-16.113,31.738,0
1533222566.522,49.316,30.762,69.824,-7.812,30.762,0
1533222566.526,45.898,31.250,-0.977,-5.859,38.086,0
1533222566.530,32.227,36.133,-142.578,-5.371,19.043,0
1533222566.534,24.414,35.645,-157.715,-5.371,-41.504,0
1533222566.538,25.391,32.715,-52.246,-8.789,-6.348,0
1533222566.542,36.133,29.785,18.555,-12.695,30.273,0
1533222566.546,42.969,29.297,-29.297,-11.230,61.035,0
1533222566.550,25.391,32.715,-116.699,-11.719,17.578,0
1533222566.553,13.672,33.203,-147.461,-13.672,-22.461,0
1533222566.557,29.785,32.227,-52.246,-7.324,12.695,0
1533222566.561,50.781,35.645,-1.465,-5.859,-13.672,0
1533222566.565,48.828,33.691,6.348,-11.230,46.875,0
1533222566.569,37.109,34.668,-69.824,-10.742,97.656,0
1533222566.573,28.809,38.086,-138.672,-11.719,77.148,0
1533222566.577,29.785,35.156,-138.184,-17.090,62.500,0
1533222566.581,45.410,36.621,-0.488,-13.672,43.457,0
1533222566.585,54.688,38.086,63.477,-3.906,49.316,0
1533222566.589,38.086,35.156,-108.398,-6.836,23.926,0
1533222566.593,15.137,34.180,-155.273,-8.789,-14.160,0
1533222566.596,17.578,32.715,-92.773,-9.766,54.199,0
1533222566.600,30.762,30.762,6.836,-9.277,70.801,0
1533222566.604,32.715,32.227,12.695,-7.812,43.945,0
1533222566.608,28.320,35.645,-135.254,-3.418,41.504,0
1533222566.612,20.508,35.156,-137.207,-1.953,-11.719,0
1533222566.616,21.484,37.109,-142.090,-5.859,-22.461,0
1533222566.620,40.039,39.062,-29.785,0.977,19.531,0
1533222566.624,54.688,39.062,91.797,4.395,33.203,0
1533222566.628,50.293,41.992,-75.195,-2.441,24.902,0
1533222566.632,33.691,45.410,-155.273,3.418,10.742,0
1533222566.636,29.297,42.480,-117.676,5.859,32.715,0
1533222566.639,46.875,34.668,-9.766,-3.418,74.219,0
1533222566.643,60.547,36.133,37.109,3.418,79.102,0
1533222566.647,46.387,40.039,-81.055,5.371,42.969,0
1533222566.651,29.785,41.016,-157.227,-1.465,35.645,0
1533222566.655,33.691,43.457,-160.645,-2.930,99.121,0
1533222566.659,47.363,42.969,-57.129,-0.488,62.500,0
1533222566.663,67.383,38.574,53.711,4.883,48.340,0
1533222566.667,62.988,39.551,-37.109,0.977,-2.441,0
1533222566.671,50.781,41.992,-112.305,-0.977,19.531,0
1533222566.675,44.434,41.992,-153.809,-3.418,104.980,0
1533222566.678,43.945,42.480,-91.797,-1.953,54.688,0
1533222566.682,61.035,40.039,84.961,2.930,48.340,0
1533222566.686,69.824,43.457,-31.250,7.812,-5.859,0
1533222566.690,47.852,43.945,-148.438,6.348,-63.965,0
1533222566.694,32.715,36.621,-138.672,-3.418,-26.367,0
1533222566.698,51.270,32.715,-75.684,-2.930,8.301,0
1533222566.702,72.266,32.227,11.719,3.906,36.621,0
1533222566.706,76.172,34.180,-8.301,8.789,81.543,0
1533222566.710,66.895,38.574,-116.699,3.418,63.477,0
1533222566.714,59.082,40.039,-161.621,-2.930,10.742,0
1533222566.718,55.664,38.086,-109.375,-2.441,13.184,0
1533222566.721,64.941,39.551,25.391,4.395,81.543,0
1533222566.725,64.453,37.598,23.926,4.395,72.266,0
1533222566.729,49.316,37.598,-128.906,-2.930,31.250,0
1533222566.733,42.480,42.969,-169.922,-0.977,-8.301,0
1533222566.737,45.898,41.016,-80.078,-1.953,-56.152,0
1533222566.741,64.941,37.598,40.527,5.371,-20.508,0
1533222566.745,77.148,39.062,-17.090,5.371,2.441,0
1533222566.749,56.152,40.039,-141.113,-3.906,40.039,0
1533222566.753,28.809,37.109,-147.461,-2.930,85.938,0
1533222566.757,36.133,37.109,-89.844,-3.418,136.230,0
1533222566.761,56.152,34.668,-0.488,-2.930,93.750,0
1533222566.764,57.129,32.715,7.812,2.930,-21.973,0
1533222566.768,41.016,36.133,-114.746,3.906,-6.348,0
1533222566.772,24.414,36.133,-165.039,-0.977,15.137,0
1533222566.776,31.250,36.133,-119.141,3.418,-19.531,0
1533222566.780,49.316,38.574,6.348,7.812,8.301,0
1533222566.784,56.641,38.574,6.836,8.301,2.441,0
1533222566.788,49.316,37.109,-95.215,4.395,-61.035,0
1533222566.792,33.203,38.086,-134.766,-1.953,13.184,0
1533222566.796,29.297,37.109,-195.312,-2.441,-3.418,0
1533222566.800,49.805,39.062,-83.496,1.953,-61.523,0
1533222566.803,64.453,41.016,81.543,-0.488,2.930,0
1533222566.807,50.781,40.527,-37.109,-2.441,17.090,0
1533222566.811,36.133,41.504,-151.855,-3.418,-53.223,0
1533222566.815,31.738,38.574,-129.883,-11.230,-11.230,0
1533222566.819,31.738,35.645,-36.621,-9.277,7.812,0
1533222566.823,47.852,38.574,28.809,-7.324,3.906,0
1533222566.827,44.922,43.457,-58.594,-8.789,36.133,0
1533222566.831,17.578,42.969,-112.305,-7.812,2.441,0
1533222566.835,12.207,43.945,-138.672,-13.184,-3.418,0
1533222566.839,28.809,44.434,-64.453,-13.184,43.457,0
1533222566.843,49.316,39.551,0.000,-7.812,74.219,0
1533222566.846,50.293,40.039,-49.316,-6.836,67.871,0
1533222566.850,32.715,38.086,-130.371,-12.207,0.488,0
1533222566.854,25.391,39.551,-167.969,-14.160,-88.867,0
1533222566.858,28.809,39.551,-108.887,-17.578,-38.574,0
1533222566.862,44.922,41.016,52.246,-15.137,41.504,0
1533222566.866,46.387,44.434,-0.977,-4.395,33.203,0
1533222566.870,27.832,42.969,-144.531,-3.418,45.410,0
1533222566.874,25.879,46.875,-135.254,-3.906,69.824,0
1533222566.878,36.621,49.805,-64.941,-6.348,83.008,0
1533222566.882,41.016,41.504,8.789,-7.812,59.082,0
1533222566.886,38.574,39.062,-20.020,2.930,27.344,0
1533222566.889,14.648,41.016,-117.188,0.488,10.742,0
1533222566.893,0.000,41.504,-133.301,-6.348,19.043,0
1533222566.897,10.254,44.434,-103.516,-6.836,62.012,0
1533222566.901,33.203,42.969,3.418,-5.859,40.039,0
1533222566.905,39.062,42.480,51.758,-1.465,34.180,0
1533222566.909,19.043,41.504,-93.262,-2.441,68.359,0
1533222566.913,5.859,39.062,-164.062,-7.324,45.898,0
1533222566.917,9.277,40.039,-99.121,-6.836,21.973,0
1533222566.921,28.809,40.039,22.949,-5.859,1.953,0
1533222566.925,41.016,39.062,16.113,-7.324,12.695,0
1533222566.928,22.949,41.504,-101.074,-9.766,35.645,0
1533222566.932,4.883,41.016,-152.344,-9.277,3.906,0
1533222566.936,18.555,38.086,-165.527,-6.348,61.523,0
1533222566.940,35.156,36.621,-32.227,-1.953,58.594,0
1533222566.944,35.645,34.668,77.148,-1.953,30.273,0
1533222566.948,23.438,37.109,-80.566,-0.488,9.766,0
1533222566.952,7.324,36.621,-152.344,-4.395,14.160,0
1533222566.956,10.742,37.598,-144.043,-5.371,46.875,0
1533222566.960,29.785,40.527,-30.762,6.836,-9.766,0
1533222566.964,39.062,35.156,41.992,12.207,26.367,0
1533222566.968,21.973,36.133,-73.242,9.766,61.523,0
1533222566.971,10.254,36.621,-169.434,9.277,-5.859,0
1533222566.975,13.672,34.668,-144.531,4.395,-2.930,0
1533222566.979,26.367,38.574,-37.109,2.441,67.871,0
1533222566.983,40.527,39.062,-10.254,12.207,60.059,0
1533222566.987,34.180,37.598,-58.594,14.648,18.066,0
1533222566.991,9.277,38.574,-116.699,12.207,-14.160,0
1533222566.995,-0.488,37.109,-161.133,9.766,12.695,0
1533222566.999,21.484,38.574,-70.801,7.324,33.691,0
1533222567.003,41.504,38.574,30.273,1.465,-6.348,0
1533222567.007,31.738,35.156,-73.242,-0.977,-50.781,0
1533222567.010,3.418,31.250,-125.977,-0.488,-16.113,0
1533222567.014,-2.930,31.250,-161.133,-2.930,63.477,0
1533222567.018,20.996,37.598,-124.512,6.836,14.160,0
1533222567.022,41.016,37.598,67.383,8.789,-1.953,0
1533222567.026,29.297,26.855,-30.273,5.859,-2.930,0
1533222567.030,9.766,26.855,-165.527,6.348,22.461,0
1533222567.034,6.836,33.691,-131.348,6.348,55.664,0
1533222567.038,11.230,30.762,-114.258,8.301,-6.836,0
1533222567.042,25.879,29.785,15.625,11.719,-33.691,0
1533222567.046,27.832,31.738,37.109,18.066,6.348,0
1533222567.050,13.672,31.738,-141.113,18.066,-1.465,0
1533222567.053,4.883,35.156,-175.293,10.742,-15.137,0
1533222567.057,7.812,31.738,-66.406,7.324,-44.922,0
1533222567.061,26.855,28.809,32.715,5.371,-58.105,0
1533222567.065,40.527,31.250,-0.488,5.371,8.301,0
1533222567.069,36.621,31.250,-104.004,10.742,80.078,0
1533222567.073,26.855,34.180,-170.898,11.230,104.492,0
1533222567.077,29.297,36.133,-142.090,6.836,11.230,0
1533222567.081,53.711,36.621,33.691,11.719,-13.672,0
1533222567.085,54.688,37.109,49.316,12.695,52.734,0
1533222567.089,31.738,37.109,-101.074,9.766,43.945,0
1533222567.093,13.672,38.086,-150.391,5.371,25.391,0
1533222567.096,5.371,37.598,-159.180,-2.441,57.129,0
1533222567.100,25.391,36.621,-36.133,-2.930,103.516,0
1533222567.104,40.039,35.645,36.133,7.324,35.156,0
1533222567.108,25.879,36.621,-117.188,8.301,-40.527,0
1533222567.112,3.906,34.668,-170.898,0.977,-47.852,0
1533222567.116,3.418,33.203,-104.492,2.441,-12.207,0
1533222567.120,30.273,34.180,-23.438,5.859,32.715,0
1533222567.124,41.992,35.156,-32.715,7.812,20.996,0
1533222567.128,25.879,40.039,-76.660,10.742,-1.953,0
1533222567.132,6.836,39.062,-111.328,7.324,-26.367,0
1533222567.135,0.000,33.691,-184.082,-1.953,-3.418,0
1533222567.139,15.625,36.621,-90.332,-8.789,-22.461,0
1533222567.143,36.133,41.016,80.078,0.000,8.789,0
1533222567.147,31.250,36.621,-44.434,3.418,84.473,0
1533222567.151,8.789,34.180,-163.574,-4.395,66.895,0
1533222567.155,4.883,37.598,-169.434,-10.742,52.734,0
1533222567.159,14.648,38.574,-58.594,-12.207,77.148,0
1533222567.163,20.020,37.598,5.371,-4.395,77.148,0
1533222567.167,11.230,39.062,-85.938,-0.488,72.266,0
1533222567.171,-0.488,46.875,-154.297,-0.977,58.594,0
1533222567.175,4.395,50.293,-157.715,-4.395,30.273,0
1533222567.178,14.648,44.922,-89.355,-3.418,44.434,0
1533222567.182,32.227,43.457,49.316,6.836,45.410,0
1533222567.186,41.016,43.457,-4.395,4.883,11.719,0
1533222567.190,31.250,45.410,-139.160,0.977,55.176,0
1533222567.194,21.973,47.363,-171.875,6.348,61.523,0
1533222567.198,27.832,48.340,-83.984,7.812,69.336,0
1533222567.202,48.340,49.316,3.906,10.742,60.547,0
1533222567.206,56.641,44.922,-56.641,12.207,-20.996,0
1533222567.210,39.062,44.922,-120.605,4.883,9.766,0
1533222567.214,25.391,46.875,-170.898,6.348,49.316,0
1533222567.218,31.738,45.898,-126.953,10.254,21.484,0
1533222567.221,50.293,46.387,1.953,5.371,21.973,0
1533222567.225,47.852,42.480,11.719,7.324,41.016,0
1533222567.229,41.016,40.039,-102.539,10.742,41.016,0
1533222567.233,30.762,37.109,-162.598,0.000,19.531,0
1533222567.237,18.555,36.621,-81.055,-4.883,43.457,0
1533222567.241,37.109,37.598,22.949,-0.977,49.316,0
1533222567.245,46.387,36.133,-4.883,2.930,21.484,0
1533222567.249,25.879,37.109,-112.793,3.906,18.066,0
1533222567.253,8.301,39.062,-173.340,1.953,11.719,0
1533222567.257,13.672,38.574,-137.207,-2.930,20.996,0
1533222567.260,35.645,34.180,-20.020,-4.395,3.906,0
1533222567.264,41.016,34.180,-14.160,-0.488,-20.508,0
1533222567.268,33.203,33.203,-87.402,4.883,-24.902,0
1533222567.272,18.555,35.645,-123.047,1.465,7.812,0
1533222567.276,14.160,41.504,-159.180,-1.953,20.508,0
1533222567.280,31.738,41.016,-37.109,3.418,-21.484,0
1533222567.284,43.457,39.551,46.387,5.371,-0.488,0
1533222567.288,25.879,39.062,-104.980,3.418,-4.883,0
1533222567.292,15.625,39.551,-160.645,4.395,8.789,0
1533222567.296,25.879,41.016,-176.758,3.906,27.344,0
1533222567.300,39.062,40.039,-62.988,1.465,14.648,0
1533222567.303,56.152,41.016,73.730,3.418,9.277,0
1533222567.307,46.387,42.969,-73.730,5.859,12.207,0
1533222567.311,21.484,43.457,-160.645,2.441,39.551,0
1533222567.315,13.672,46.387,-158.203,0.000,51.758,0
1533222567.319,30.762,47.363,-67.383,2.930,20.020,0
1533222567.323,53.711,44.434,78.613,4.883,-15.625,0
1533222567.327,41.016,42.480,-10.254,0.488,12.695,0
1533222567.331,17.578,39.062,-139.160,-6.836,46.387,0
1533222567.335,16.602,40.039,-169.922,-8.301,46.875,0
1533222567.339,33.203,42.969,-50.293,-5.859,41.504,0
1533222567.343,41.504,44.434,43.945,-2.930,76.172,0
1533222567.346,35.156,46.387,-66.406,-3.418,37.109,0
1533222567.350,19.531,42.480,-142.090,-6.348,20.020,0
1533222567.354,8.789,40.039,-149.902,-4.883,77.637,0
1533222567.358,12.695,37.598,-107.910,-8.789,15.137,0
1533222567.362,35.156,34.180,9.277,-10.742,-70.801,0
1533222567.366,44.434,37.109,-0.977,-3.418,-46.387,0
1533222567.370,24.414,37.109,-106.934,-5.371,3.418,0
1533222567.374,11.719,35.156,-162.598,-10.254,-26.367,0
1533222567.378,13.672,37.598,-125.000,-6.836,-14.648,0
1533222567.382,28.809,34.668,30.762,-3.906,23.438,0
1533222567.385,32.715,32.227,38.574,2.930,66.406,0
1533222567.389,6.836,30.762,-154.297,-0.977,47.363,0
1533222567.393,-1.953,33.203,-178.223,-5.371,-1.953,0
1533222567.397,17.090,36.133,-58.105,-0.977,24.414,0
1533222567.401,26.855,36.621,5.859,-0.977,-2.441,0
1533222567.405,31.738,39.062,-18.555,4.883,36.621,0
1533222567.409,23.926,39.062,-104.004,6.348,35.645,0
1533222567.413,20.020,40.527,-106.445,1.465,46.875,0
1533222567.417,32.715,46.387,-156.250,0.000,24.414,0
1533222567.421,43.945,46.875,-24.414,0.977,15.137,0
1533222567.425,52.734,46.387,74.219,2.930,45.898,0
1533222567.428,48.828,49.316,-96.680,7.324,-18.066,0
1533222567.432,36.133,44.434,-137.207,14.160,-12.695,0
1533222567.436,32.715,44.434,-88.867,9.766,73.242,0
1533222567.440,43.945,49.805,6.348,-10.742,96.680,0
1533222567.444,79.590,54.688,-5.859,-3.906,58.594,0
1533222567.448,78.613,52.246,-113.770,12.695,-5.859,0
1533222567.452,40.039,44.922,-138.672,12.695,37.598,0
1533222567.456,35.156,49.316,-143.555,5.371,31.250,0
1533222567.460,50.293,50.781,-11.719,1.465,0.488,0
1533222567.464,65.430,51.758,32.715,16.113,-11.719,0
1533222567.468,59.082,53.223,-67.871,17.090,7.812,0
1533222567.471,42.480,44.922,-129.395,6.348,94.238,0
1533222567.475,41.992,44.434,-190.430,9.766,28.809,0
1533222567.479,56.641,49.316,-65.918,8.301,-0.977,0
1533222567.483,72.266,53.711,47.363,9.766,32.715,0
1533222567.487,61.035,53.711,-68.848,14.648,4.395,0
1533222567.491,45.410,53.223,-137.207,10.742,-7.324,0
1533222567.495,37.598,53.223,-169.922,7.812,6.836,0
1533222567.499,45.898,50.781,-78.125,11.719,18.066,0
1533222567.503,62.500,47.363,38.574,10.742,20.020,0
1533222567.507,62.500,47.363,-36.133,10.254,15.625,0
1533222567.510,41.016,43.945,-102.539,5.371,17.090,0
1533222567.514,27.832,43.945,-120.605,-6.836,50.293,0
1533222567.518,42.480,48.340,-150.879,-1.465,48.828,0
1533222567.522,53.711,48.828,24.414,4.395,-25.879,0
1533222567.526,48.340,46.387,65.430,5.371,29.297,0
1533222567.530,36.133,44.434,-133.301,6.348,41.016,0
1533222567.534,30.273,47.852,-176.758,2.930,-20.508,0
1533222567.538,36.133,47.363,-77.148,4.883,5.371,0
1533222567.542,57.129,45.410,25.879,8.301,68.848,0
1533222567.546,65.918,44.434,-48.828,9.277,69.336,0
1533222567.550,46.387,40.527,-106.445,0.977,81.055,0
1533222567.553,32.227,39.551,-127.930,-6.348,57.129,0
1533222567.557,39.062,40.527,-149.414,-7.324,9.766,0
1533222567.561,53.223,39.551,9.277,-7.324,78.613,0
1533222567.565,56.641,37.109,49.316,-5.859,66.406,0
1533222567.569,44.434,41.016,-107.422,-9.277,13.672,0
1533222567.573,36.621,47.363,-166.016,-11.719,23.926,0
1533222567.577,34.180,43.457,-110.352,-15.625,1.465,0
1533222567.581,49.805,42.480,15.625,-16.602,8.301,0
1533222567.585,62.012,44.922,23.926,-14.648,69.824,0
1533222567.589,44.434,44.922,-103.516,-12.207,64.453,0
1533222567.592,24.902,42.480,-189.941,-11.230,49.805,0
1533222567.596,26.855,41.016,-136.230,-13.672,14.648,0
1533222567.600,38.574,39.062,2.930,-15.137,-19.531,0
1533222567.604,50.293,38.574,3.418,-14.160,-44.922,0
1533222567.608,45.410,45.410,-113.770,-8.301,-52.246,0
1533222567.612,28.320,45.898,-150.879,-7.324,-73.730,0
1533222567.616,18.555,39.551,-175.781,-10.742,-15.625,0
1533222567.620,32.227,40.527,-60.547,-11.230,64.453,0
1533222567.624,48.340,38.086,68.848,-14.160,65.430,0
1533222567.628,36.133,32.715,-76.660,-12.695,51.758,0
1533222567.632,11.719,31.738,-156.250,-9.766,25.391,0
1533222567.635,6.348,31.250,-154.785,-13.184,39.062,0
1533222567.639,16.602,31.250,-72.754,-18.066,84.961,0
1533222567.643,32.715,33.691,10.254,-6.836,9.766,0
1533222567.647,32.227,34.180,-35.645,-1.465,-1.953,0
1533222567.651,13.184,30.762,-148.438,-12.695,-16.602,0
1533222567.655,0.977,29.297,-193.359,-17.090,-21.484,0
1533222567.659,9.277,28.809,-101.074,-18.066,43.457,0
1533222567.663,29.297,30.273,55.664,-15.137,20.020,0
1533222567.667,38.574,32.227,-9.766,-11.230,36.133,0
1533222567.671,30.273,36.133,-151.367,-12.207,54.199,0
1533222567.675,18.066,37.598,-187.500,-14.160,61.523,0
1533222567.678,25.391,32.715,-62.012,-11.719,83.008,0
1533222567.682,41.992,29.785,12.207,-8.789,50.293,0
1533222567.686,37.598,33.691,-65.430,-11.230,27.344,0
1533222567.690,20.996,35.645,-130.371,-7.812,34.180,0
1533222567.694,19.043,30.762,-128.906,-6.348,45.898,0
1533222567.698,32.715,29.785,-125.977,-5.371,50.781,0
1533222567.702,44.922,33.691,10.254,0.488,48.828,0
1533222567.706,50.293,34.668,21.484,7.812,23.438,0
1533222567.710,43.457,35.645,-133.301,6.348,4.395,0
1533222567.714,29.785,36.133,-177.246,0.977,-28.809,0
1533222567.717,37.598,37.598,-67.383,5.859,-19.043,0
1533222567.721,50.781,35.156,22.461,14.648,21.484,0
1533222567.725,55.664,32.715,-9.277,12.695,20.020,0
1533222567.729,41.992,34.180,-115.723,4.883,91.309,0
1533222567.733,13.672,30.273,-203.613,1.953,32.715,0
1533222567.737,20.020,31.738,-152.832,0.488,-22.461,0
1533222567.741,45.898,36.621,11.719,3.418,54.199,0
1533222567.745,50.293,35.645,42.480,11.230,52.734,0
1533222567.749,45.898,36.133,-96.680,14.648,57.129,0
1533222567.753,33.203,39.062,-175.293,4.395,36.133,0
1533222567.757,33.203,40.039,-139.160,0.977,14.648,0
1533222567.760,43.945,41.504,0.488,8.301,33.691,0
1533222567.764,48.340,39.062,10.742,8.789,14.160,0
1533222567.768,43.945,36.133,-97.656,4.883,-39.062,0
1533222567.772,29.785,38.574,-143.066,0.000,6.836,0
1533222567.776,27.344,39.551,-133.789,-3.418,38.086,0
1533222567.780,42.480,37.109,-28.320,-2.930,18.066,0
1533222567.784,54.199,40.527,37.598,0.977,61.035,0
1533222567.788,45.410,39.062,-47.852,0.000,53.223,0
1533222567.792,21.484,32.715,-105.469,-7.812,59.082,0
1533222567.796,19.531,32.227,-195.801,-12.207,55.664,0
1533222567.800,43.945,33.203,-92.773,-8.789,8.301,0
1533222567.803,56.641,35.645,85.449,-2.930,-32.227,0
1533222567.807,44.434,33.203,-32.715,0.977,-0.977,0
1533222567.811,28.809,29.785,-145.996,-1.465,35.156,0
1533222567.815,20.508,33.691,-184.570,-4.883,51.270,0
1533222567.819,34.668,33.203,-71.777,-3.418,45.410,0
1533222567.823,45.898,29.297,20.020,-2.441,40.527,0
1533222567.827,26.855,27.344,-105.957,-3.906,-36.133,0
1533222567.831,8.789,25.391,-134.766,-2.930,-32.227,0
1533222567.835,14.648,28.809,-143.066,0.000,-5.371,0
1533222567.839,33.203,29.785,-80.078,-4.883,-6.836,0
1533222567.842,51.758,26.367,39.062,-3.418,36.621,0
1533222567.846,50.781,30.762,-10.742,4.883,104.004,0
1533222567.850,28.320,33.691,-138.672,2.930,84.473,0
1533222567.854,21.973,32.715,-198.730,-0.488,-4.395,0
1533222567.858,35.645,32.227,-112.793,-3.418,35.156,0
1533222567.862,57.129,32.227,49.316,-0.488,51.758,0
1533222567.866,55.176,29.297,-9.277,3.906,-23.438,0
1533222567.870,26.367,28.320,-148.926,-3.906,-16.602,0
1533222567.874,8.789,27.344,-187.500,-8.301,41.504,0
1533222567.878,18.555,23.926,-161.133,-5.859,50.293,0
1533222567.882,41.016,26.855,-35.645,-1.465,4.883,0
1533222567.885,42.480,30.762,-26.367,-3.418,-7.812,0
1533222567.889,20.996,31.250,-178.711,-6.836,38.086,0
1533222567.893,6.348,29.297,-221.191,-5.371,48.828,0
1533222567.897,14.160,29.297,-168.457,-5.859,1.465,0
1533222567.901,37.598,30.762,-27.832,-0.977,-14.648,0
1533222567.905,41.016,27.832,-2.441,4.395,75.195,0
1533222567.909,22.949,26.367,-164.551,-3.906,82.520,0
1533222567.913,4.883,26.367,-238.281,-7.812,6.836,0
1533222567.917,12.695,27.344,-162.598,-6.836,32.227,0
1533222567.921,31.250,29.297,-53.711,-3.906,45.410,0
1533222567.925,46.387,36.133,-19.043,2.930,-10.742,0
1533222567.928,38.086,36.133,-88.379,-0.488,3.418,0
1533222567.932,10.742,24.902,-169.434,-8.301,34.668,0
1533222567.936,9.766,21.484,-227.051,-8.789,24.414,0
1533222567.940,25.391,26.367,-80.566,-4.883,27.344,0
1533222567.944,37.598,25.391,43.945,-5.371,42.969,0
1533222567.948,30.762,26.367,-105.957,-11.230,32.715,0
1533222567.952,13.672,31.738,-193.359,-13.672,-2.441,0
1533222567.956,3.418,35.645,-193.359,-8.789,-23.926,0
1533222567.960,22.461,40.039,-45.410,-4.395,2.441,0
1533222567.964,48.828,41.016,12.695,1.465,28.809,0
1533222567.967,42.969,37.109,-135.742,4.395,-0.488,0
1533222567.971,20.508,36.621,-153.320,-4.395,-7.324,0
1533222567.975,19.043,36.621,-171.387,-8.789,41.016,0
1533222567.979,31.738,31.250,-117.676,-6.348,8.301,0
1533222567.983,48.828,37.598,89.355,6.348,27.832,0
1533222567.987,61.035,47.852,-34.668,15.137,25.879,0
1533222567.991,47.852,47.852,-171.875,8.301,-47.852,0
1533222567.995,34.668,48.828,-166.504,6.836,0.488,0
1533222567.999,45.898,45.898,-67.871,9.277,59.082,0
1533222568.003,67.871,41.992,37.109,4.883,87.402,0
1533222568.007,70.801,39.062,-55.664,5.859,54.688,0
1533222568.010,50.781,38.086,-176.270,6.836,-7.812,0
1533222568.014,39.062,36.621,-222.168,-5.371,-24.902,0
1533222568.018,45.898,35.156,-123.535,-12.695,8.789,0
1533222568.022,53.711,33.691,44.922,-4.395,68.359,0
1533222568.026,51.270,35.156,-29.297,2.930,5.371,0
1533222568.030,33.203,36.133,-158.203,1.465,-32.715,0
1533222568.034,21.973,34.180,-178.711,-3.418,1.465,0
1533222568.038,28.809,34.180,-97.168,-3.906,13.184,0
1533222568.042,33.691,28.809,12.207,-0.488,4.883,0
1533222568.046,34.668,28.809,-27.344,5.371,15.625,0
1533222568.050,24.414,30.762,-136.719,4.883,62.012,0
1533222568.053,14.160,25.879,-196.777,-1.953,38.086,0
1533222568.057,22.949,25.391,-114.258,-4.395,12.207,0
1533222568.061,36.621,24.902,-29.297,-0.977,-3.418,0
1533222568.065,42.969,22.949,-25.879,6.348,-10.254,0
1533222568.069,37.109,24.902,-73.242,6.836,62.988,0
1533222568.073,19.531,25.391,-158.203,2.441,84.473,0
1533222568.077,26.367,24.902,-141.602,5.371,30.762,0
1533222568.081,45.410,26.367,15.625,13.672,52.246,0
1533222568.085,56.152,30.273,11.230,20.996,78.125,0
1533222568.089,47.363,30.762,-121.094,20.508,3.418,0
1533222568.092,24.414,29.785,-168.457,14.160,-20.996,0
1533222568.096,22.461,33.203,-151.367,10.742,-10.742,0
1533222568.100,43.945,33.691,-3.418,13.184,36.133,0
1533222568.104,59.082,31.250,20.020,17.090,80.078,0
1533222568.108,45.898,34.180,-127.930,16.113,43.457,0
1533222568.112,27.832,38.086,-187.012,18.555,12.207,0
1533222568.116,31.738,38.086,-166.992,19.043,-10.254,0
1533222568.120,52.734,38.086,0.977,16.602,52.734,0
1533222568.124,54.199,35.645,4.395,14.648,32.715,0
1533222568.128,45.410,39.551,-101.562,14.648,-15.625,0
1533222568.132,31.738,39.551,-130.859,13.672,48.828,0
1533222568.135,13.184,33.691,-192.383,12.207,80.566,0
1533222568.139,26.367,32.715,-115.723,8.789,95.703,0
1533222568.143,49.316,32.227,42.480,4.883,34.180,0
1533222568.147,50.293,31.738,-3.906,5.859,17.578,0
1533222568.151,25.879,35.156,-171.875,1.465,16.113,0
1533222568.155,17.090,39.551,-221.191,-0.488,-24.902,0
1533222568.159,35.156,34.668,-85.938,4.395,-6.836,0
1533222568.163,51.270,33.203,92.285,8.789,12.695,0
1533222568.167,41.016,34.180,-3.418,11.230,56.641,0
1533222568.171,19.531,33.203,-147.949,9.277,68.359,0
1533222568.175,17.578,35.156,-167.969,2.441,64.453,0
1533222568.178,35.645,34.668,-83.984,-2.441,57.129,0
1533222568.182,48.828,34.180,35.645,-0.977,50.293,0
1533222568.186,43.945,36.133,-3.906,2.930,85.449,0
1533222568.190,27.832,37.109,-122.559,3.418,51.758,0
1533222568.194,19.043,39.062,-179.199,-3.906,-12.695,0
1533222568.198,27.344,36.133,-99.121,-8.301,-24.414,0
1533222568.202,48.340,35.156,7.812,-8.789,5.859,0
1533222568.206,54.688,36.621,-15.137,-9.766,-8.789,0
1533222568.210,33.691,38.086,-88.867,-20.020,-12.695,0
1533222568.214,19.531,37.598,-158.691,-25.391,-16.602,0
1533222568.217,25.879,31.250,-149.414,-22.949,48.828,0
1533222568.221,43.945,27.344,-7.812,-19.531,41.992,0
1533222568.225,48.828,31.250,35.645,-9.766,-18.555,0
1533222568.229,36.133,31.738,-109.863,-8.789,23.438,0
1533222568.233,22.461,28.809,-184.082,-12.695,48.828,0
1533222568.237,30.762,30.273,-125.000,-14.648,31.738,0
1533222568.241,53.223,35.645,20.996,-16.602,27.832,0
1533222568.245,64.453,38.574,14.160,-10.742,42.969,0
1533222568.249,52.734,37.109,-127.930,-5.859,47.363,0
1533222568.253,27.832,36.133,-173.828,-10.742,16.602,0
1533222568.257,26.855,35.156,-173.828,-5.859,-28.320,0
1533222568.260,55.664,33.203,-10.742,-0.977,34.668,0
1533222568.264,72.266,30.273,66.895,0.000,43.457,0
1533222568.268,57.617,25.879,-84.473,3.418,-17.578,0
1533222568.272,35.645,21.484,-159.180,-5.859,42.480,0
1533222568.276,28.809,21.484,-176.270,-6.348,13.672,0
1533222568.280,47.852,19.531,-22.461,-0.488,-6.348,0
1533222568.284,62.012,15.137,41.016,0.000,33.691,0
1533222568.288,55.176,21.973,-67.871,2.441,62.012,0
1533222568.292,30.762,22.461,-146.973,0.000,100.586,0
1533222568.296,16.113,13.672,-203.613,-5.859,62.988,0
1533222568.299,32.227,7.812,-87.891,-3.906,14.648,0
1533222568.303,48.340,7.812,65.918,3.906,37.109,0
1533222568.307,45.898,9.277,-32.227,1.953,71.289,0
1533222568.311,31.250,11.230,-156.250,-1.465,58.594,0
1533222568.315,25.879,14.160,-199.707,-3.418,45.410,0
1533222568.319,41.992,14.160,-103.516,-3.906,33.691,0
1533222568.323,49.316,13.672,41.504,0.977,-20.508,0
1533222568.327,42.969,13.672,-49.316,-0.977,-31.250,0
1533222568.331,32.227,16.602,-148.926,-3.418,-46.387,0
1533222568.335,21.484,20.508,-178.223,-5.371,-24.414,0
1533222568.339,32.227,19.531,-99.121,-3.906,-6.836,0
1533222568.342,48.828,17.578,57.617,4.883,14.160,0
1533222568.346,54.688,19.531,17.090,5.859,67.871,0
1533222568.350,41.016,22.461,-120.605,0.488,70.312,0
1533222568.354,22.949,20.508,-179.199,-6.836,21.484,0
1533222568.358,29.297,19.043,-111.816,-7.324,24.902,0
1533222568.362,45.898,21.973,46.875,0.488,19.531,0
1533222568.366,44.434,24.902,40.527,-3.418,11.719,0
1533222568.370,23.926,26.855,-107.422,-4.395,32.715,0
1533222568.374,17.578,25.391,-167.480,-4.395,38.574,0
1533222568.378,21.973,22.461,-104.980,-7.324,9.277,0
1533222568.382,37.109,19.531,49.316,-6.836,-18.066,0
1533222568.385,52.246,20.020,16.602,0.000,18.066,0
1533222568.389,36.133,22.949,-133.789,5.371,74.219,0
1533222568.393,13.184,22.949,-161.133,0.000,48.828,0
1533222568.397,20.996,20.508,-136.719,-3.418,-0.977,0
1533222568.401,46.875,24.902,14.160,5.371,11.230,0
1533222568.405,50.781,26.855,68.848,2.441,23.438,0
1533222568.409,25.391,20.508,-100.586,-7.812,48.340,0
1533222568.413,4.395,21.484,-136.719,-9.277,65.430,0
1533222568.417,4.883,20.996,-92.773,-10.742,104.980,0
1533222568.421,31.738,19.531,8.301,-5.371,99.609,0
1533222568.424,48.340,23.438,25.879,6.348,51.758,0
1533222568.428,31.250,21.973,-68.359,5.859,52.246,0
1533222568.432,17.578,23.438,-152.344,-0.977,34.180,0
1533222568.436,20.508,26.367,-202.637,-2.930,-22.949,0
1533222568.440,35.156,24.902,-23.438,-2.930,-28.809,0
1533222568.444,46.875,23.926,118.652,-5.371,-11.719,0
1533222568.448,37.598,24.902,-21.484,-0.977,21.484,0
1533222568.452,13.672,28.809,-144.531,-1.465,41.504,0
1533222568.456,15.625,27.832,-166.504,-13.672,-1.953,0
1533222568.460,25.391,23.926,-22.949,-17.578,-15.625,0
1533222568.464,36.133,24.902,46.875,-9.766,-4.883,0
1533222568.467,41.992,26.855,-14.648,-7.324,13.184,0
1533222568.471,18.555,27.832,-106.934,-14.160,51.270,0
1533222568.475,13.184,28.809,-168.457,-5.859,-8.301,0
1533222568.479,36.133,31.250,-47.363,-1.953,-34.668,0
1533222568.483,51.758,33.203,29.785,0.488,25.879,0
1533222568.487,51.270,33.691,-26.855,4.883,1.465,0
1533222568.491,32.227,31.738,-77.637,-0.488,-25.879,0
1533222568.495,16.602,28.320,-158.691,-2.930,-14.648,0
1533222568.499,32.227,31.250,-104.980,-3.418,28.809,0
1533222568.503,51.270,30.762,89.355,-2.930,48.340,0
1533222568.507,49.316,28.809,22.461,0.488,18.066,0
1533222568.510,34.668,31.738,-109.375,3.906,4.883,0
1533222568.514,28.320,32.715,-162.109,5.371,3.906,0
1533222568.518,37.109,29.297,-99.609,4.883,6.836,0
1533222568.522,54.688,28.809,55.664,11.719,40.039,0
1533222568.526,62.012,29.297,16.113,16.113,34.180,0
1533222568.530,44.922,30.762,-131.836,11.230,5.859,0
1533222568.534,35.156,33.203,-146.484,9.277,44.922,0
