timestamps,TP9,AF7,AF8,TP10,Right AUX,label
1533222972.289,41.992,38.574,137.695,33.691,6.348,0
1533222972.292,38.574,41.504,-190.430,31.738,-27.832,0
1533222972.296,30.273,39.062,-338.867,24.902,-33.203,0
1533222972.300,34.668,35.645,-124.023,26.367,21.973,0
1533222972.304,42.969,36.621,21.973,30.762,62.988,0
1533222972.308,41.992,36.621,98.145,26.855,67.871,0
1533222972.312,36.621,35.645,-64.941,24.902,-31.738,0
1533222972.316,29.785,34.668,-180.176,26.367,-9.277,0
1533222972.320,24.902,33.691,-197.754,21.484,50.781,0
1533222972.324,28.809,36.621,-38.574,16.602,50.781,0
1533222972.328,34.668,39.551,175.293,21.973,46.387,0
1533222972.332,29.297,38.086,-126.465,24.902,9.277,0
1533222972.335,26.367,38.574,-375.000,18.066,35.156,0
1533222972.339,20.508,40.039,-250.000,18.066,15.625,0
1533222972.343,22.461,36.621,-77.148,19.043,19.531,0
1533222972.347,35.645,36.621,145.996,24.414,72.754,0
1533222972.351,38.574,40.039,-49.316,29.785,20.996,0
1533222972.355,30.273,36.621,-373.047,26.855,6.836,0
1533222972.359,21.484,35.156,-418.945,22.949,45.410,0
1533222972.363,26.367,37.598,-237.305,22.461,21.484,0
1533222972.367,34.668,34.180,96.191,26.367,-0.977,0
1533222972.371,33.691,28.809,-30.762,31.738,34.668,0
1533222972.375,25.879,34.668,-424.805,31.738,91.797,0
1533222972.378,22.949,38.086,-405.762,26.855,8.789,0
1533222972.382,29.297,37.109,-198.730,27.832,-4.883,0
1533222972.386,39.551,36.621,4.395,30.762,22.949,0
1533222972.390,40.039,38.086,-95.215,35.156,12.695,0
1533222972.394,23.438,40.527,-354.492,27.344,41.016,0
1533222972.398,16.602,39.551,-466.309,15.137,45.410,0
1533222972.402,24.414,37.598,-446.289,17.578,44.434,0
1533222972.406,32.715,35.156,-140.625,19.043,21.973,0
1533222972.410,32.715,34.668,-41.504,14.648,15.137,0
1533222972.414,14.648,34.180,-459.961,7.324,19.531,0
1533222972.417,8.301,37.598,-565.918,2.441,23.438,0
1533222972.421,20.020,41.992,-350.098,9.766,-22.461,0
1533222972.425,27.344,40.527,-33.691,14.648,12.695,0
1533222972.429,32.227,40.039,-22.461,16.113,70.312,0
1533222972.433,33.203,42.480,-343.262,20.508,64.453,0
1533222972.437,14.648,35.156,-513.184,20.996,67.871,0
1533222972.441,7.324,27.832,-463.379,23.438,39.062,0
1533222972.445,31.738,27.344,-159.668,31.250,107.910,0
1533222972.449,36.621,28.809,-141.113,27.832,85.449,0
1533222972.453,17.090,30.273,-551.270,13.184,-16.113,0
1533222972.457,4.883,32.227,-613.281,6.836,-4.883,0
1533222972.460,14.648,34.180,-363.281,13.672,19.531,0
1533222972.464,35.156,36.133,-176.758,24.414,44.434,0
1533222972.468,39.551,37.109,-78.613,32.227,65.430,0
1533222972.472,33.203,33.203,-364.258,32.715,29.297,0
1533222972.476,23.926,32.227,-650.391,30.762,-15.137,0
1533222972.480,19.531,34.668,-551.758,28.320,15.137,0
1533222972.484,20.020,32.715,-308.594,26.367,20.020,0
1533222972.488,23.438,33.691,-189.453,26.855,-41.016,0
1533222972.492,22.461,33.691,-312.988,22.461,52.734,0
1533222972.496,14.160,35.156,-620.605,14.648,118.164,0
1533222972.500,15.625,37.109,-727.051,15.625,20.020,0
1533222972.503,24.414,32.715,-412.109,18.066,-2.441,0
1533222972.507,27.344,30.762,-92.773,15.625,37.109,0
1533222972.511,20.508,33.203,-329.102,14.160,61.035,0
1533222972.515,21.484,33.203,-656.250,10.254,7.324,0
1533222972.519,19.531,31.738,-633.789,10.742,-17.090,0
1533222972.523,20.508,29.785,-437.500,9.766,-3.906,0
1533222972.527,31.250,28.809,-172.363,8.301,1.465,0
1533222972.531,36.621,30.762,-417.969,11.719,-15.137,0
1533222972.535,26.855,28.320,-713.379,10.254,-2.441,0
1533222972.539,18.555,28.809,-548.828,7.324,63.477,0
1533222972.542,32.227,29.785,-481.934,7.812,27.832,0
1533222972.546,44.922,32.227,-233.398,9.277,-6.836,0
1533222972.550,42.969,36.133,-236.328,15.137,17.090,0
1533222972.554,29.785,38.086,-607.422,12.695,9.766,0
1533222972.558,30.273,40.527,-545.410,10.254,-1.953,0
1533222972.562,36.133,38.574,-319.824,11.719,-3.418,0
1533222972.566,45.898,40.527,-86.426,15.137,24.902,0
1533222972.570,47.363,41.504,-145.020,23.438,36.621,0
1533222972.574,31.250,34.180,-448.730,22.461,20.508,0
1533222972.578,27.344,36.621,-543.945,18.555,-4.883,0
1533222972.582,34.180,40.039,-383.301,19.043,-25.879,0
1533222972.585,45.410,38.086,-86.914,23.438,17.090,0
1533222972.589,45.410,37.598,-124.023,25.879,3.418,0
1533222972.593,34.180,34.668,-360.352,23.926,-12.695,0
1533222972.597,22.461,33.203,-397.949,19.043,21.973,0
1533222972.601,21.484,34.180,-214.355,14.648,62.012,0
1533222972.605,23.438,30.273,-19.043,13.184,-4.883,0
1533222972.609,14.160,22.949,26.855,10.742,-37.598,0
1533222972.613,4.395,23.926,-189.941,14.648,35.156,0
1533222972.617,-3.418,24.414,-369.141,12.207,18.066,0
1533222972.621,-0.977,23.438,-281.738,6.348,-14.160,0
1533222972.625,7.324,21.973,-8.789,9.277,-5.371,0
1533222972.628,9.277,22.461,102.051,15.625,-19.531,0
1533222972.632,5.371,26.855,-126.953,14.160,27.832,0
1533222972.636,1.465,28.320,-402.832,13.184,29.297,0
1533222972.640,3.906,26.367,-274.414,14.160,25.879,0
1533222972.644,15.137,25.879,28.320,12.695,37.598,0
1533222972.648,27.832,31.250,203.125,13.672,37.109,0
1533222972.652,14.160,31.738,-99.609,15.625,50.293,0
1533222972.656,-1.953,32.715,-413.574,17.090,69.336,0
1533222972.660,7.324,33.203,-148.438,17.090,71.777,0
1533222972.664,31.738,32.227,87.891,19.531,-14.160,0
1533222972.667,45.410,35.156,236.328,26.855,-21.973,0
1533222972.671,37.109,34.668,6.836,29.297,-31.738,0
1533222972.675,21.484,34.180,-230.957,27.832,-4.883,0
1533222972.679,18.066,30.762,-230.469,25.391,13.672,0
1533222972.683,32.227,30.273,-93.262,21.484,-9.277,0
1533222972.687,43.457,33.691,169.922,30.273,8.789,0
1533222972.691,38.086,32.715,-16.602,37.109,-19.531,0
1533222972.695,20.996,32.715,-334.961,30.762,-49.316,0
1533222972.699,14.160,33.691,-171.387,23.926,19.043,0
1533222972.703,27.832,32.715,34.180,27.832,21.484,0
1533222972.707,39.062,33.203,295.898,33.203,23.926,0
1533222972.710,36.621,33.691,114.746,25.879,29.297,0
1533222972.714,28.320,39.062,-202.148,17.090,21.484,0
1533222972.718,17.090,40.527,-210.449,16.113,47.363,0
1533222972.722,26.367,40.527,-38.574,13.184,34.668,0
1533222972.726,50.293,46.387,217.285,24.414,26.367,0
1533222972.730,40.527,43.945,29.785,24.414,-3.906,0
1533222972.734,9.766,40.039,-237.793,13.184,32.715,0
1533222972.738,3.906,37.598,-137.695,10.742,57.129,0
1533222972.742,8.789,33.203,14.648,8.789,28.809,0
1533222972.746,14.160,30.273,247.559,14.648,28.320,0
1533222972.750,4.395,26.367,220.215,20.020,78.125,0
1533222972.753,-8.301,26.855,-145.020,19.531,75.195,0
1533222972.757,-7.324,25.879,-277.344,13.672,7.812,0
1533222972.761,0.488,23.926,-46.387,16.602,3.906,0
1533222972.765,11.230,29.297,255.859,20.020,20.996,0
1533222972.769,14.648,28.809,203.613,19.043,4.395,0
1533222972.773,4.395,23.926,-95.215,19.043,10.254,0
1533222972.777,-2.930,25.391,-269.531,20.020,-0.977,0
1533222972.781,5.859,23.926,-126.465,20.996,16.113,0
1533222972.785,19.531,26.367,242.188,25.879,49.805,0
1533222972.789,20.996,29.297,324.707,29.297,48.340,0
1533222972.792,12.695,27.832,-200.684,27.344,-3.418,0
1533222972.796,0.977,26.855,-380.371,23.438,-48.828,0
1533222972.800,7.812,32.227,21.484,23.926,28.320,0
1533222972.804,19.043,33.203,209.961,21.973,47.363,0
1533222972.808,26.367,30.762,270.508,20.996,44.434,0
1533222972.812,17.090,30.762,-18.066,25.879,94.238,0
1533222972.816,5.371,30.273,-287.598,20.020,81.055,0
1533222972.820,1.465,26.367,-124.023,15.625,95.703,0
1533222972.824,4.883,24.414,22.461,16.602,46.387,0
1533222972.828,11.230,25.391,201.660,12.207,35.156,0
1533222972.832,10.254,25.391,-74.219,10.254,0.977,0
1533222972.835,0.488,23.926,-364.258,8.301,-56.152,0
1533222972.839,-5.371,22.461,-22.461,9.277,43.945,0
1533222972.843,6.836,22.949,186.523,19.043,56.641,0
1533222972.847,20.996,25.391,260.742,22.949,27.832,0
1533222972.851,20.996,25.879,34.180,22.949,37.598,0
1533222972.855,15.625,32.227,-245.117,20.996,32.227,0
1533222972.859,12.207,33.203,-234.863,12.695,-0.488,0
1533222972.863,14.648,28.320,20.996,11.230,-7.812,0
1533222972.867,16.602,27.832,261.719,5.859,23.926,0
1533222972.871,3.418,27.344,5.371,0.488,28.809,0
1533222972.875,-5.859,30.762,-331.055,-1.465,-17.090,0
1533222972.878,-22.949,25.879,-225.586,-19.531,-17.090,0
1533222972.882,-31.250,25.391,87.402,-30.762,2.441,0
1533222972.886,-32.715,26.367,349.121,-38.574,5.859,0
1533222972.890,-59.570,22.461,118.652,-63.477,7.324,0
1533222972.894,-90.332,20.996,-232.910,-86.426,46.387,0
1533222972.898,-107.422,17.578,-129.883,-96.680,41.016,0
1533222972.902,-107.422,14.160,101.562,-103.516,12.695,0
1533222972.906,-104.492,18.066,311.523,-118.164,37.598,0
1533222972.910,-122.559,24.414,208.496,-138.184,52.734,0
1533222972.914,-143.555,25.879,-68.848,-149.902,104.004,0
1533222972.917,-156.738,22.949,-230.469,-160.156,46.387,0
1533222972.921,-159.668,20.996,-46.387,-165.039,-19.043,0
1533222972.925,-154.297,19.043,303.711,-164.551,-14.160,0
1533222972.929,-161.621,16.602,299.805,-166.992,10.742,0
1533222972.933,-162.109,19.043,-94.727,-166.992,32.227,0
1533222972.937,-164.062,21.484,-133.301,-172.363,64.941,0
1533222972.941,-161.621,20.996,156.738,-172.852,61.035,0
1533222972.945,-137.695,20.508,309.082,-166.016,11.230,0
1533222972.949,-130.859,25.879,313.965,-164.551,29.785,0
1533222972.953,-142.090,35.156,9.277,-161.133,59.082,0
1533222972.957,-143.066,35.645,-142.578,-154.785,58.105,0
1533222972.960,-132.812,34.668,-57.129,-143.555,9.766,0
1533222972.964,-110.840,39.551,173.828,-124.023,28.809,0
1533222972.968,-99.121,39.551,240.723,-113.770,73.242,0
1533222972.972,-107.422,34.180,-24.414,-109.863,24.414,0
1533222972.976,-95.703,37.109,-119.141,-99.609,61.523,0
1533222972.980,-81.055,39.062,-47.852,-96.191,66.406,0
1533222972.984,-68.848,35.156,103.516,-87.402,-6.348,0
1533222972.988,-43.945,40.039,291.504,-65.430,-5.371,0
1533222972.992,-47.852,40.039,-97.656,-54.199,-11.719,0
1533222972.996,-45.898,36.133,-331.055,-46.875,22.949,0
1533222973.000,-21.973,39.062,-66.895,-28.809,17.578,0
1533222973.003,-2.930,39.062,126.953,-17.578,-6.348,0
1533222973.007,13.184,33.691,246.582,-6.836,0.000,0
1533222973.011,21.484,35.645,-172.363,7.324,-34.180,0
1533222973.015,15.625,40.039,-410.645,15.137,-4.883,0
1533222973.019,20.508,37.598,-97.168,24.902,35.156,0
1533222973.023,48.828,38.086,139.648,41.992,35.645,0
1533222973.027,63.965,45.410,259.766,49.805,61.035,0
1533222973.031,59.570,46.387,-29.785,56.152,16.602,0
1533222973.035,50.781,40.039,-282.227,63.477,22.949,0
1533222973.039,57.129,39.062,-278.809,68.359,30.762,0
1533222973.042,78.125,40.039,-45.898,71.777,13.184,0
1533222973.046,89.355,38.574,178.711,77.148,-22.461,0
1533222973.050,91.797,38.574,-18.555,82.520,-6.836,0
1533222973.054,82.520,43.457,-277.344,81.055,47.852,0
1533222973.058,81.055,43.457,-331.543,83.496,23.438,0
1533222973.062,97.168,40.039,-106.934,91.309,25.391,0
1533222973.066,104.980,41.992,216.309,94.727,-3.906,0
1533222973.070,105.469,43.457,104.492,101.074,1.953,0
1533222973.074,97.656,39.062,-363.770,98.145,25.879,0
1533222973.078,98.633,41.992,-266.113,91.309,23.926,0
1533222973.082,107.422,41.992,49.805,100.098,51.270,0
1533222973.085,114.258,37.598,184.082,106.934,12.695,0
1533222973.089,110.840,43.945,101.562,104.980,1.953,0
1533222973.093,104.004,44.922,-199.219,99.609,71.777,0
1533222973.097,100.586,41.992,-321.289,101.562,43.945,0
1533222973.101,106.934,43.457,-104.492,103.516,18.066,0
1533222973.105,122.070,47.363,137.207,107.910,57.129,0
1533222973.109,117.188,49.805,83.008,114.258,41.016,0
1533222973.113,102.539,48.828,-297.363,106.445,15.625,0
1533222973.117,107.422,51.758,-323.242,103.027,35.645,0
1533222973.121,114.746,52.246,-6.348,100.098,-18.066,0
1533222973.124,118.652,49.316,216.309,97.656,-5.859,0
1533222973.128,115.723,44.434,207.520,98.145,61.035,0
1533222973.132,100.098,45.898,-156.738,93.262,54.199,0
1533222973.136,88.379,49.316,-326.172,89.355,28.809,0
1533222973.140,92.773,47.363,-164.551,94.238,29.785,0
1533222973.144,99.609,44.922,102.539,94.727,30.273,0
1533222973.148,99.609,46.387,133.301,95.703,-0.488,0
1533222973.152,99.609,48.828,-216.797,98.145,20.020,0
1533222973.156,88.867,45.898,-431.641,89.355,11.230,0
1533222973.160,85.449,43.457,-188.477,85.449,0.488,0
1533222973.164,98.633,42.480,152.344,88.379,42.969,0
1533222973.167,93.262,37.109,231.445,82.520,75.195,0
1533222973.171,76.172,39.062,-240.234,78.125,27.832,0
1533222973.175,70.801,43.457,-462.402,82.520,19.531,0
1533222973.179,74.219,40.527,-137.207,80.566,94.238,0
1533222973.183,79.102,38.574,44.922,74.707,65.430,0
1533222973.187,79.590,38.086,128.906,74.707,44.434,0
1533222973.191,73.242,37.109,-147.461,72.266,27.344,0
1533222973.195,62.988,36.621,-450.684,70.312,-62.500,0
1533222973.199,63.965,41.504,-403.320,66.406,-48.828,0
1533222973.203,77.637,42.969,-69.824,63.965,4.883,0
1533222973.207,84.961,40.039,207.520,65.430,37.109,0
1533222973.210,76.660,40.039,-147.461,63.477,17.090,0
1533222973.214,72.754,45.410,-395.508,63.477,53.223,0
1533222973.218,72.266,44.434,-250.977,62.500,108.887,0
1533222973.222,74.707,41.016,-141.113,60.547,4.883,0
1533222973.226,80.078,45.410,46.387,61.035,-50.781,0
1533222973.230,76.660,44.922,-127.930,65.430,-19.043,0
1533222973.234,68.848,42.969,-433.594,62.012,25.879,0
1533222973.238,63.965,42.969,-357.422,56.152,18.066,0
1533222973.242,68.848,43.945,-118.652,58.105,20.508,0
1533222973.246,82.031,47.363,12.695,62.012,30.762,0
1533222973.249,80.078,48.828,-155.762,65.918,28.320,0
1533222973.253,67.383,47.852,-363.770,57.617,34.180,0
1533222973.257,60.547,45.898,-324.707,47.363,22.949,0
1533222973.261,73.730,44.922,-162.109,54.688,-28.320,0
1533222973.265,79.590,40.527,40.527,59.570,0.488,0
1533222973.269,61.523,38.086,38.574,55.176,68.848,0
1533222973.273,46.387,40.527,-473.633,46.387,20.020,0
1533222973.277,46.387,38.574,-558.594,39.551,-26.855,0
1533222973.281,52.734,40.039,-43.457,39.551,-27.344,0
1533222973.285,62.012,42.969,180.664,37.598,1.953,0
1533222973.289,58.594,38.086,77.637,41.992,11.719,0
1533222973.292,46.875,40.039,-303.223,44.922,31.738,0
1533222973.296,40.039,45.410,-430.664,41.504,65.430,0
1533222973.300,39.551,42.480,-129.395,41.504,70.801,0
1533222973.304,52.246,39.062,155.273,47.363,81.543,0
1533222973.308,54.199,39.551,153.809,47.852,85.938,0
1533222973.312,45.898,42.969,-333.008,40.039,80.566,0
1533222973.316,41.504,42.480,-522.461,38.086,13.184,0
1533222973.320,47.852,41.016,-171.875,40.527,-14.160,0
1533222973.324,53.223,41.016,33.691,42.969,-30.762,0
1533222973.328,48.340,42.480,165.527,43.457,-6.836,0
1533222973.332,34.180,39.062,-117.188,39.551,20.996,0
1533222973.335,23.926,38.574,-388.672,36.621,-33.691,0
1533222973.339,29.297,40.527,-309.082,35.645,-21.484,0
1533222973.343,39.551,36.621,21.973,39.062,33.203,0
1533222973.347,38.086,35.156,274.414,43.945,48.828,0
1533222973.351,23.926,38.086,-160.156,40.039,31.250,0
1533222973.355,13.184,37.109,-496.582,33.691,13.184,0
1533222973.359,14.160,32.715,-108.887,37.109,75.195,0
1533222973.363,30.273,34.668,187.500,40.039,106.445,0
1533222973.367,38.574,38.086,220.215,38.574,70.312,0
1533222973.371,27.344,36.133,-88.379,33.691,41.992,0
1533222973.374,19.531,32.715,-354.980,31.250,24.902,0
1533222973.378,23.926,34.180,-262.207,32.715,21.973,0
1533222973.382,35.156,35.156,0.000,40.039,-11.230,0
1533222973.386,39.062,30.762,176.270,44.922,-19.531,0
1533222973.390,35.645,27.344,-27.832,40.527,44.434,0
1533222973.394,30.273,35.645,-364.258,41.504,57.617,0
1533222973.398,36.621,37.109,-183.105,43.945,8.301,0
1533222973.402,48.828,27.832,155.762,47.852,-15.137,0
1533222973.406,44.434,25.391,237.793,49.805,-69.824,0
1533222973.410,39.551,27.832,40.039,50.781,-56.641,0
1533222973.414,33.203,35.156,-269.531,45.898,-17.090,0
1533222973.417,18.066,37.109,-264.160,24.414,-57.129,0
1533222973.421,24.414,38.574,8.789,21.484,-52.246,0
1533222973.425,33.691,39.062,302.246,26.367,68.848,0
1533222973.429,25.391,36.133,106.445,29.785,79.102,0
1533222973.433,19.043,36.621,-326.172,31.738,-1.465,0
1533222973.437,20.996,36.621,-345.215,28.320,23.438,0
1533222973.441,33.691,36.621,-43.945,33.203,6.348,0
1533222973.445,49.316,36.621,290.039,38.086,8.301,0
1533222973.449,49.316,31.738,204.590,38.574,97.168,0
1533222973.453,36.621,31.738,-267.578,38.574,23.926,0
1533222973.457,30.273,35.645,-306.152,38.086,-10.254,0
1533222973.460,47.363,36.621,-27.832,36.621,9.766,0
1533222973.464,56.152,37.598,202.148,39.551,19.531,0
1533222973.468,51.270,37.598,208.496,41.504,83.496,0
1533222973.472,47.852,38.086,-322.266,41.016,33.691,0
1533222973.476,32.227,39.062,-417.480,39.062,8.789,0
1533222973.480,31.738,37.598,-39.551,35.156,51.270,0
1533222973.484,49.805,37.109,179.688,34.668,26.855,0
1533222973.488,55.176,37.598,311.035,42.480,43.457,0
1533222973.492,36.621,36.133,-235.352,44.434,-12.207,0
1533222973.496,29.785,38.574,-451.660,35.645,-53.223,0
1533222973.499,40.039,38.574,76.660,31.738,34.180,0
1533222973.503,49.805,40.527,280.273,32.227,58.105,0
1533222973.507,48.340,40.039,251.465,33.691,45.410,0
1533222973.511,36.133,35.645,-31.738,30.273,53.711,0
1533222973.515,24.902,34.668,-241.699,27.344,64.453,0
1533222973.519,41.016,33.203,-92.773,30.273,34.668,0
1533222973.523,66.895,34.668,170.898,35.645,17.090,0
1533222973.527,51.270,36.621,224.121,36.133,13.184,0
1533222973.531,24.902,33.691,-48.340,35.156,36.133,0
1533222973.535,24.414,34.180,-185.547,32.227,59.082,0
1533222973.539,30.762,32.715,32.227,39.062,95.703,0
1533222973.542,41.016,28.320,256.348,41.992,104.492,0
1533222973.546,43.457,26.855,277.832,29.297,50.293,0
1533222973.550,26.367,25.879,-61.035,31.738,38.574,0
1533222973.554,28.320,31.738,-288.574,42.480,29.297,0
1533222973.558,47.852,36.133,-6.348,35.645,0.977,0
1533222973.562,45.410,33.691,308.594,22.461,23.926,0
1533222973.566,41.992,32.715,432.617,16.113,71.289,0
1533222973.570,40.527,34.668,158.203,25.879,45.898,0
1533222973.574,28.809,33.691,-215.820,33.691,14.160,0
1533222973.578,24.414,34.668,-88.867,21.973,41.016,0
1533222973.582,34.180,32.227,291.016,24.414,55.176,0
1533222973.585,36.133,29.785,478.516,27.832,49.805,0
1533222973.589,24.414,32.227,247.070,24.902,31.250,0
1533222973.593,19.531,29.785,-285.156,20.996,-57.617,0
1533222973.597,22.461,28.320,-99.609,21.973,-7.812,0
1533222973.601,26.855,30.273,377.441,25.879,85.938,0
1533222973.605,36.133,35.645,388.184,29.297,21.484,0
1533222973.609,31.738,36.621,254.883,37.109,1.953,0
1533222973.613,10.742,35.645,-29.785,35.156,14.648,0
1533222973.617,20.020,37.598,-78.613,31.250,25.391,0
1533222973.621,36.133,38.086,83.984,28.809,20.996,0
1533222973.624,41.992,38.086,320.801,31.250,20.020,0
1533222973.628,39.062,32.715,325.684,35.156,48.340,0
1533222973.632,26.855,32.227,-76.660,29.785,22.949,0
1533222973.636,32.227,32.227,-173.828,29.785,8.789,0
1533222973.640,52.246,30.273,86.426,39.062,24.414,0
1533222973.644,61.523,37.109,284.668,34.180,4.395,0
1533222973.648,59.570,37.598,234.375,24.902,-4.395,0
1533222973.652,51.758,39.062,-111.816,22.461,12.207,0
1533222973.656,44.922,41.504,-192.871,23.438,23.438,0
1533222973.660,52.734,40.039,41.504,24.902,47.852,0
1533222973.664,60.059,39.062,222.168,28.320,34.668,0
1533222973.667,55.176,36.621,248.535,39.551,1.953,0
1533222973.671,41.016,35.645,-99.121,30.762,4.395,0
1533222973.675,34.180,33.691,-365.723,19.043,58.594,0
1533222973.679,40.527,33.691,31.250,20.508,42.969,0
1533222973.683,45.410,36.621,476.074,25.879,-1.953,0
1533222973.687,40.527,34.668,443.848,26.855,27.832,0
1533222973.691,40.039,33.691,56.641,27.832,24.414,0
1533222973.695,29.785,34.668,-161.621,29.297,4.395,0
1533222973.699,30.762,35.156,77.148,27.832,57.129,0
1533222973.703,38.086,34.668,312.988,24.414,48.828,0
1533222973.707,40.527,34.668,346.191,25.879,-28.809,0
1533222973.710,32.227,33.203,36.133,29.297,-23.926,0
1533222973.714,19.531,35.156,-241.699,25.879,-21.973,0
1533222973.718,28.320,38.574,-56.641,28.809,-31.738,0
1533222973.722,37.598,39.062,281.738,34.668,4.883,0
1533222973.726,38.574,41.504,468.750,35.645,-4.883,0
1533222973.730,35.156,43.457,150.391,37.598,-21.973,0
1533222973.734,35.156,43.457,-293.457,34.668,-9.766,0
1533222973.738,30.273,39.062,-41.016,29.297,-21.484,0
1533222973.742,41.504,39.551,351.074,34.180,-12.695,0
1533222973.746,55.664,43.457,392.090,35.645,-34.180,0
1533222973.749,37.598,42.969,111.816,34.668,-45.898,0
1533222973.753,27.832,44.434,-167.969,35.645,21.973,0
1533222973.757,35.156,41.504,-99.121,34.180,28.320,0
1533222973.761,51.758,39.551,53.711,34.180,-19.043,0
1533222973.765,59.570,42.969,290.039,40.527,4.883,0
1533222973.769,49.316,43.945,253.418,36.621,53.711,0
1533222973.773,34.668,42.969,-333.984,24.414,-21.484,0
1533222973.777,32.227,40.039,-251.465,20.996,-25.879,0
1533222973.781,41.992,38.574,265.625,24.902,22.461,0
1533222973.785,46.387,40.039,370.605,28.320,34.180,0
1533222973.789,36.133,35.645,158.203,28.320,40.039,0
1533222973.792,32.227,30.273,-231.934,29.297,11.719,0
1533222973.796,28.320,30.762,-254.883,31.738,12.695,0
1533222973.800,32.227,31.738,12.207,29.785,7.812,0
1533222973.804,41.504,30.762,228.027,28.320,13.672,0
1533222973.808,35.156,31.738,39.062,27.344,11.230,0
1533222973.812,29.785,32.227,-245.605,28.809,44.922,0
1533222973.816,31.250,36.133,-188.965,28.809,104.980,0
1533222973.820,42.969,38.574,-36.133,33.203,12.207,0
1533222973.824,44.434,33.691,181.152,33.203,14.160,0
1533222973.828,41.504,29.785,151.855,27.344,46.387,0
1533222973.831,34.668,31.250,-340.332,23.926,45.410,0
1533222973.835,27.344,36.133,-425.781,24.414,112.305,0
1533222973.839,41.016,36.133,-35.156,31.250,60.059,0
1533222973.843,53.711,34.668,177.734,26.367,42.969,0
1533222973.847,56.641,36.133,124.023,22.461,36.133,0
1533222973.851,51.270,40.527,-234.863,28.809,23.438,0
1533222973.855,32.715,39.062,-438.965,29.297,54.199,0
1533222973.859,34.668,30.273,-249.512,30.762,24.902,0
1533222973.863,50.781,30.273,90.820,36.621,31.250,0
1533222973.867,48.828,34.668,177.246,37.109,18.066,0
1533222973.871,34.180,33.691,-252.441,37.109,9.766,0
1533222973.874,24.902,35.645,-558.105,31.250,37.598,0
1533222973.878,33.203,34.668,-215.820,28.809,-29.297,0
1533222973.882,42.480,30.273,159.180,35.645,-0.977,0
1533222973.886,43.945,32.715,117.188,38.086,27.344,0
1533222973.890,36.621,35.645,-275.391,38.574,-34.180,0
1533222973.894,31.738,35.156,-430.664,33.691,-7.812,0
1533222973.898,40.039,38.574,-238.770,29.785,17.090,0
1533222973.902,49.316,43.945,-57.617,31.250,8.789,0
1533222973.906,47.852,38.086,135.742,37.598,66.895,0
1533222973.910,42.480,36.133,-79.590,35.156,70.312,0
1533222973.914,35.156,39.551,-555.176,32.227,68.359,0
1533222973.917,34.180,36.133,-333.984,30.273,56.152,0
1533222973.921,35.645,36.621,85.449,25.391,31.738,0
1533222973.925,32.227,38.574,121.094,26.367,17.578,0
1533222973.929,23.926,34.668,-112.793,26.855,25.391,0
1533222973.933,11.230,31.738,-447.754,24.414,-41.992,0
1533222973.937,8.301,30.762,-321.289,24.414,-32.715,0
1533222973.941,17.578,28.320,9.277,24.902,44.434,0
1533222973.945,33.691,29.297,97.656,29.297,47.852,0
1533222973.949,33.203,30.273,-127.930,28.809,4.883,0
1533222973.953,13.672,31.250,-543.945,20.508,-33.203,0
1533222973.956,17.090,32.715,-378.906,16.113,20.508,0
1533222973.960,23.926,31.738,91.309,17.090,34.180,0
1533222973.964,21.484,32.715,185.547,20.996,1.953,0
1533222973.968,14.648,33.203,-4.395,19.043,-16.113,0
1533222973.972,2.930,31.738,-340.820,19.043,-16.113,0
1533222973.976,-3.418,28.320,-299.316,19.043,88.867,0
1533222973.980,3.418,29.785,-34.180,14.648,134.766,0
1533222973.984,12.207,31.250,89.355,18.555,41.992,0
1533222973.988,0.977,33.691,24.414,14.648,28.320,0
1533222973.992,0.000,36.133,-287.598,10.742,71.289,0
1533222973.996,-4.395,34.180,-468.262,14.160,3.418,0
1533222973.999,-0.488,29.785,-213.867,15.137,-59.570,0
1533222974.003,19.043,30.762,100.098,16.113,-18.066,0
1533222974.007,8.301,32.715,192.871,20.020,28.320,0
1533222974.011,-6.348,33.691,-288.086,16.113,-31.250,0
1533222974.015,-6.836,36.621,-469.727,6.348,-0.488,0
1533222974.019,6.836,36.133,15.137,10.254,23.438,0
1533222974.023,11.230,31.738,249.023,15.137,-24.902,0
1533222974.027,2.441,34.180,189.941,16.602,-24.414,0
1533222974.031,1.953,35.156,-154.785,20.508,32.715,0
1533222974.035,6.836,31.738,-302.734,17.090,77.148,0
1533222974.039,7.324,31.738,-41.016,17.578,107.422,0
1533222974.042,11.719,33.691,94.238,24.902,57.617,0
1533222974.046,13.672,34.668,155.273,20.020,21.484,0
1533222974.050,8.301,36.133,-57.129,13.184,64.941,0
1533222974.054,6.836,37.598,-295.898,17.578,70.312,0
1533222974.058,7.324,32.715,-79.590,19.043,63.965,0
1533222974.062,21.973,33.203,206.055,20.508,21.973,0
1533222974.066,25.391,31.738,298.340,25.391,-4.883,0
1533222974.070,21.973,31.250,-50.293,27.832,-9.277,0
1533222974.074,16.602,33.203,-375.000,26.855,-9.766,0
1533222974.078,17.578,36.621,-32.227,21.973,31.738,0
1533222974.081,33.203,38.574,333.008,20.996,58.105,0
1533222974.085,35.156,33.691,307.617,24.414,15.625,0
1533222974.089,26.855,32.715,5.371,26.855,33.691,0
1533222974.093,24.902,34.668,-341.309,21.973,74.707,0
1533222974.097,28.809,36.133,-110.840,21.973,25.879,0
1533222974.101,36.133,35.645,330.566,27.344,-3.418,0
1533222974.105,44.922,37.109,399.902,26.367,27.832,0
1533222974.109,39.551,40.527,141.113,24.414,24.414,0
1533222974.113,29.785,39.062,-217.285,22.461,42.480,0
1533222974.117,36.133,42.480,-132.324,24.902,49.805,0
1533222974.121,48.340,40.527,253.418,36.621,29.785,0
1533222974.124,34.668,29.297,387.207,29.785,18.066,0
1533222974.128,18.555,28.320,171.875,20.020,-7.324,0
1533222974.132,14.160,29.297,-125.977,24.414,12.695,0
1533222974.136,2.441,25.391,-157.715,22.949,5.371,0
1533222974.140,11.230,24.414,153.809,20.996,26.367,0
1533222974.144,21.484,25.879,463.867,19.043,67.871,0
1533222974.148,18.555,27.832,333.984,22.949,62.012,0
1533222974.152,13.184,29.297,-75.195,24.902,52.246,0
1533222974.156,13.672,29.785,-117.188,20.020,-0.488,0
1533222974.160,21.973,33.691,224.121,25.391,-8.301,0
1533222974.164,32.227,33.203,487.793,33.203,89.355,0
1533222974.167,31.250,27.832,320.312,25.391,65.918,0
1533222974.171,20.020,24.902,-95.215,20.996,21.973,0
1533222974.175,15.137,25.879,-65.430,22.461,53.711,0
1533222974.179,21.484,27.344,275.879,27.832,64.453,0
1533222974.183,32.227,28.809,401.855,29.297,74.219,0
1533222974.187,34.668,29.785,313.965,24.902,35.156,0
1533222974.191,22.949,31.250,-25.879,20.020,-31.250,0
1533222974.195,17.090,31.250,-245.605,20.508,-18.555,0
1533222974.199,27.832,26.855,264.648,25.879,45.898,0
1533222974.203,39.551,24.902,663.086,23.438,21.484,0
1533222974.206,44.434,29.785,496.582,25.879,-21.484,0
1533222974.210,36.133,31.738,141.602,24.414,29.785,0
1533222974.214,20.996,31.738,-49.316,26.855,30.273,0
1533222974.218,24.902,30.762,187.988,35.156,0.977,0
1533222974.222,33.691,28.320,469.238,31.250,30.762,0
1533222974.226,36.621,26.855,434.570,31.250,32.227,0
1533222974.230,32.227,28.809,45.410,32.227,26.367,0
1533222974.234,20.996,34.668,-188.965,33.203,28.809,0
1533222974.238,21.484,36.621,200.684,28.320,38.086,0
1533222974.242,33.691,35.156,555.176,31.250,45.410,0
1533222974.246,33.203,33.691,520.020,35.645,54.688,0
1533222974.249,20.020,33.203,146.973,25.391,27.832,0
1533222974.253,18.066,33.691,-134.766,23.926,12.695,0
1533222974.257,29.785,35.156,93.750,28.809,53.711,0
1533222974.261,47.852,36.133,323.242,26.855,-6.836,0
1533222974.265,51.270,37.109,423.340,27.344,-7.812,0
1533222974.269,25.879,33.203,195.312,27.832,61.035,0
1533222974.273,5.371,30.273,-124.023,23.438,71.289,0
1533222974.277,18.066,32.715,-41.992,23.926,71.777,0
1533222974.281,39.062,35.156,166.992,20.020,11.230,0
1533222974.285,37.109,32.715,370.117,18.555,22.949,0
1533222974.289,28.320,28.809,294.922,16.602,32.227,0
1533222974.292,23.926,34.180,-248.535,12.207,-16.602,0
1533222974.296,7.812,36.133,-189.453,10.742,-13.672,0
1533222974.300,15.625,31.250,369.629,9.277,29.297,0
1533222974.304,25.391,29.785,422.363,15.137,13.672,0
1533222974.308,14.648,32.227,183.594,21.973,33.203,0
1533222974.312,8.789,33.691,-189.941,17.578,24.902,0
1533222974.316,10.742,30.762,-180.176,16.113,-4.883,0
1533222974.320,22.461,26.855,140.625,16.602,25.391,0
1533222974.324,41.992,29.785,200.684,21.484,14.160,0
1533222974.328,34.668,33.691,102.051,26.367,-5.859,0
1533222974.331,17.090,31.738,-267.578,22.461,-12.695,0
1533222974.335,18.555,32.715,-323.730,19.043,-3.906,0
1533222974.339,21.484,33.691,156.250,22.461,31.738,0
1533222974.343,29.297,32.227,337.891,26.855,44.922,0
1533222974.347,30.273,31.738,190.430,25.391,21.484,0
1533222974.351,26.855,32.715,-177.246,23.438,9.277,0
1533222974.355,30.762,34.180,-236.328,25.391,-19.043,0
1533222974.359,39.062,32.715,106.445,29.297,33.691,0
1533222974.363,26.367,22.461,331.055,19.531,69.824,0
1533222974.367,19.531,20.996,212.402,19.043,2.441,0
1533222974.371,21.973,28.320,-228.516,26.855,-20.508,0
1533222974.374,22.949,28.320,-340.332,23.438,29.785,0
1533222974.378,38.086,23.926,166.992,26.367,60.547,0
1533222974.382,49.316,23.438,414.551,26.855,14.648,0
1533222974.386,44.434,24.902,309.570,22.949,-0.977,0
1533222974.390,38.086,25.879,-50.293,22.949,-9.277,0
1533222974.394,36.133,26.855,-248.047,23.926,-41.992,0
1533222974.398,42.969,29.297,18.555,17.090,-19.043,0
1533222974.402,46.875,29.297,356.934,17.578,15.625,0
1533222974.406,42.969,26.855,388.672,22.461,30.273,0
1533222974.410,28.320,26.367,-15.625,20.996,24.902,0
1533222974.414,18.555,25.879,-313.965,19.043,-76.172,0
1533222974.417,23.926,23.926,-88.379,20.996,-64.453,0
1533222974.421,27.832,26.367,253.906,25.391,-27.344,0
1533222974.425,28.320,24.414,371.582,29.297,-40.039,0
1533222974.429,25.879,23.438,78.125,25.391,-10.254,0
1533222974.433,28.320,26.367,-397.461,23.438,-20.508,0
1533222974.437,28.809,22.949,-137.695,22.949,10.742,0
1533222974.441,41.504,26.855,348.145,30.762,45.898,0
1533222974.445,41.504,28.320,295.898,31.250,23.438,0
1533222974.449,31.738,21.973,6.348,24.414,45.410,0
1533222974.453,22.461,23.438,-277.344,27.344,112.305,0
1533222974.456,22.949,31.250,-197.266,25.391,61.523,0
1533222974.460,39.551,31.738,91.797,24.414,10.742,0
1533222974.464,38.574,23.926,133.789,26.855,77.148,0
1533222974.468,25.879,28.320,-87.402,27.344,24.902,0
1533222974.472,17.090,31.250,-439.453,24.902,-2.930,0
1533222974.476,24.414,30.762,-375.000,23.926,7.324,0
1533222974.480,29.785,31.738,136.230,28.809,-3.906,0
1533222974.484,22.461,31.738,208.008,25.391,0.977,0
1533222974.488,18.066,34.180,-26.855,21.484,33.203,0
1533222974.492,13.184,38.086,-382.324,17.578,34.668,0
1533222974.496,5.371,38.086,-402.832,11.230,-16.113,0
1533222974.499,15.137,37.109,-46.387,13.672,29.297,0
1533222974.503,22.949,38.574,113.770,18.066,70.801,0
1533222974.507,19.531,41.016,-99.121,18.555,16.113,0
1533222974.511,8.789,40.039,-463.379,11.719,43.457,0
1533222974.515,4.883,34.180,-511.719,8.301,25.879,0
1533222974.519,23.438,34.180,-114.746,11.230,-33.203,0
1533222974.523,32.227,38.086,126.953,14.160,3.418,0
1533222974.527,26.367,37.109,-22.461,15.137,27.832,0
1533222974.531,27.832,34.180,-439.453,18.066,46.387,0
1533222974.535,26.855,32.715,-566.406,20.996,0.000,0
1533222974.539,29.297,33.691,-217.773,22.949,-63.477,0
1533222974.542,31.250,31.250,33.203,28.320,-15.137,0
1533222974.546,26.367,30.273,-36.133,35.645,27.344,0
1533222974.550,20.020,31.738,-440.430,36.133,44.922,0
1533222974.554,18.066,35.156,-574.219,26.367,91.309,0
1533222974.558,23.926,35.645,-339.844,28.809,51.270,0
1533222974.562,29.297,32.227,-139.160,33.203,-13.184,0
1533222974.566,26.855,33.203,-78.613,26.367,-11.719,0
1533222974.570,13.184,35.156,-375.977,19.531,31.738,0
1533222974.574,6.348,33.203,-615.723,13.672,-1.465,0
1533222974.578,12.207,31.738,-296.387,8.789,28.809,0
1533222974.581,23.926,37.598,-37.598,11.230,51.270,0
1533222974.585,25.879,39.062,-94.727,12.695,25.879,0
1533222974.589,17.090,34.668,-375.488,14.160,34.180,0
1533222974.593,6.348,33.691,-768.066,8.301,50.781,0
1533222974.597,14.160,35.645,-471.680,7.812,71.289,0
1533222974.601,32.715,38.574,45.898,13.184,52.246,0
1533222974.605,30.762,36.621,-69.336,17.578,25.391,0
1533222974.609,20.020,35.645,-379.883,22.949,12.695,0
1533222974.613,9.766,36.621,-705.078,17.578,-22.461,0
1533222974.617,16.113,35.645,-417.969,11.230,-0.488,0
1533222974.621,27.832,32.715,14.160,15.137,10.742,0
1533222974.624,25.879,32.227,16.113,20.508,27.344,0
1533222974.628,17.578,30.762,-183.594,24.902,58.105,0
1533222974.632,8.301,29.297,-500.000,26.855,55.664,0
1533222974.636,12.207,27.832,-390.625,26.855,47.363,0
1533222974.640,24.414,29.785,-58.105,27.832,80.566,0
1533222974.644,25.879,31.738,2.930,30.273,62.988,0
1533222974.648,15.625,28.320,-237.305,28.809,-3.418,0
1533222974.652,9.766,28.809,-676.270,27.344,-0.488,0
1533222974.656,18.066,28.809,-572.266,23.438,13.672,0
1533222974.660,29.297,26.855,-13.672,26.367,7.324,0
1533222974.663,27.344,26.855,72.266,22.949,-24.414,0
1533222974.667,16.602,28.809,-148.926,18.066,-21.484,0
1533222974.671,8.789,26.855,-483.887,16.602,26.367,0
1533222974.675,3.906,24.414,-449.707,6.348,72.266,0
1533222974.679,9.277,23.926,-167.969,9.277,32.715,0
1533222974.683,21.484,24.902,48.340,19.531,38.574,0
1533222974.687,15.625,27.344,-106.445,20.020,29.297,0
1533222974.691,12.695,26.855,-513.672,15.625,-29.297,0
1533222974.695,24.414,30.762,-466.797,12.695,31.250,0
1533222974.699,21.973,30.273,-234.375,11.719,14.648,0
1533222974.703,24.902,23.438,-15.625,14.648,50.293,0
1533222974.706,19.043,23.926,23.438,17.090,105.469,0
1533222974.710,9.277,28.320,-435.059,10.742,75.195,0
1533222974.714,8.301,31.250,-675.781,3.906,60.547,0
1533222974.718,18.555,28.320,-183.105,9.277,55.176,0
1533222974.722,23.438,30.273,83.984,16.602,-24.902,0
1533222974.726,20.020,33.203,-58.105,19.043,-53.223,0
1533222974.730,16.602,32.715,-393.555,17.090,0.488,0
1533222974.734,9.277,33.203,-612.305,15.625,-12.207,0
1533222974.738,16.113,33.691,-269.531,10.742,-1.953,0
1533222974.742,31.738,33.691,2.930,12.695,-8.301,0
1533222974.746,31.738,33.691,-145.508,19.531,-18.555,0
1533222974.749,17.090,36.133,-429.688,12.207,64.453,0
1533222974.753,13.184,37.598,-577.148,11.230,29.785,0
1533222974.757,20.020,34.180,-262.695,12.695,38.086,0
1533222974.761,25.879,30.273,-8.301,12.695,71.777,0
1533222974.765,23.438,29.785,-119.141,13.672,-3.418,0
1533222974.769,9.766,30.762,-491.211,8.301,-31.250,0
1533222974.773,16.113,32.227,-684.570,3.906,8.301,0
1533222974.777,23.926,30.762,-384.277,7.324,33.203,0
1533222974.781,21.973,26.367,-104.004,12.207,25.391,0
1533222974.785,27.832,25.391,-128.418,9.766,15.137,0
1533222974.788,21.484,28.320,-375.977,8.789,36.133,0
1533222974.792,20.508,28.809,-841.309,12.695,-8.789,0
1533222974.796,31.250,31.250,-759.766,11.230,-15.625,0
1533222974.800,40.527,30.762,-79.590,13.184,26.855,0
1533222974.804,46.387,32.227,31.250,19.531,42.969,0
1533222974.808,29.297,29.297,-345.703,22.949,62.012,0
1533222974.812,13.672,28.320,-698.730,17.578,21.973,0
1533222974.816,21.973,29.785,-601.562,15.137,0.488,0
1533222974.820,35.645,31.250,-279.785,17.090,-0.977,0
1533222974.824,35.645,33.203,-177.246,20.508,18.066,0
1533222974.828,24.902,31.250,-417.969,19.531,21.973,0
1533222974.831,16.602,34.668,-738.281,11.719,11.719,0
1533222974.835,12.207,36.133,-665.039,8.789,23.438,0
1533222974.839,15.137,33.691,-429.199,4.883,6.836,0
1533222974.843,20.508,31.250,-281.738,5.859,27.344,0
1533222974.847,12.207,29.785,-341.309,10.254,84.473,0
1533222974.851,6.836,29.297,-766.602,6.836,51.758,0
1533222974.855,11.719,31.250,-863.281,6.348,-21.973,0
1533222974.859,20.508,30.762,-328.125,12.695,36.133,0
1533222974.863,31.738,30.273,-147.461,16.113,60.547,0
1533222974.867,29.785,29.785,-401.367,18.066,56.152,0
1533222974.871,16.602,25.391,-787.109,19.043,67.871,0
1533222974.874,17.090,22.461,-916.016,15.137,-7.324,0
1533222974.878,29.785,22.461,-567.871,17.578,-23.438,0
1533222974.882,36.133,20.996,-359.375,23.438,-5.371,0
1533222974.886,27.832,21.484,-574.707,25.391,-8.301,0
1533222974.890,21.973,29.297,-877.930,23.438,21.484,0
1533222974.894,25.391,35.645,-958.496,19.043,36.621,0
1533222974.898,30.762,33.203,-579.590,20.020,44.922,0
1533222974.902,33.691,29.785,-263.184,27.344,80.566,0
1533222974.906,29.297,30.273,-483.887,22.461,85.938,0
1533222974.910,18.555,31.250,-838.867,20.020,42.480,0
1533222974.913,14.160,32.227,-955.078,20.996,29.297,0
1533222974.917,30.762,33.203,-733.398,22.949,13.672,0
1533222974.921,38.574,31.738,-471.680,23.438,21.973,0
1533222974.925,35.156,29.785,-551.270,20.996,20.508,0
1533222974.929,24.414,27.832,-841.797,20.020,-13.672,0
1533222974.933,15.625,29.785,-1000.000,16.602,-37.598,0
1533222974.937,22.461,30.273,-855.469,17.090,-39.062,0
1533222974.941,32.227,32.227,-428.711,22.949,42.480,0
1533222974.945,33.203,35.645,-427.734,24.414,47.852,0
1533222974.949,19.043,32.227,-808.594,21.484,-5.371,0
1533222974.953,11.230,34.668,-988.281,15.137,-4.395,0
1533222974.956,27.832,36.621,-752.930,13.672,23.926,0
1533222974.960,34.180,32.715,-479.492,17.578,38.574,0
1533222974.964,28.809,36.133,-460.938,19.531,35.645,0
1533222974.968,25.391,36.621,-684.570,19.531,27.344,0
1533222974.972,20.508,33.203,-977.051,19.043,8.789,0
1533222974.976,27.344,31.738,-782.227,22.461,10.254,0
1533222974.980,35.645,30.762,-441.406,31.738,11.719,0
1533222974.984,35.156,32.715,-361.816,34.668,33.203,0
1533222974.988,25.879,33.691,-510.742,28.809,43.945,0
1533222974.992,19.043,34.180,-872.070,20.508,-10.254,0
1533222974.996,24.902,33.203,-763.672,16.602,-6.836,0
1533222974.999,32.227,30.762,-341.309,22.461,7.324,0
1533222975.003,37.109,31.250,-227.539,27.344,35.645,0
1533222975.007,33.203,34.180,-460.449,21.484,37.598,0
1533222975.011,24.902,34.668,-840.820,11.719,12.695,0
1533222975.015,25.391,35.645,-821.289,10.742,-32.227,0
1533222975.019,41.992,35.645,-345.215,19.531,-34.180,0
1533222975.023,42.480,29.785,-118.652,21.973,-16.602,0
1533222975.027,25.391,28.320,-327.148,17.578,15.137,0
1533222975.031,18.066,34.180,-750.488,13.672,17.578,0
1533222975.035,17.578,33.691,-756.348,13.184,-1.953,0
1533222975.038,23.438,32.227,-187.500,17.090,9.277,0
1533222975.042,32.715,35.156,53.711,22.949,31.250,0
1533222975.046,21.973,34.668,-179.199,22.949,41.016,0
1533222975.050,9.277,38.574,-614.258,18.555,-20.508,0
1533222975.054,14.160,38.574,-631.348,15.625,-1.465,0
1533222975.058,28.320,35.156,-199.219,18.555,55.664,0
1533222975.062,38.574,36.133,1.465,23.438,65.430,0
1533222975.066,30.762,37.109,-154.297,27.344,32.227,0
1533222975.070,15.625,33.691,-516.113,23.926,-7.812,0
1533222975.074,13.672,29.785,-635.254,15.625,22.461,0
1533222975.078,22.461,32.227,-295.410,19.043,41.504,0
1533222975.081,38.086,30.762,15.137,21.973,49.805,0
1533222975.085,35.645,29.297,1.953,20.996,36.133,0
1533222975.089,18.066,31.738,-280.273,19.043,41.016,0
1533222975.093,24.414,35.645,-628.418,17.090,53.223,0
1533222975.097,38.574,34.668,-259.277,16.602,68.359,0
1533222975.101,42.969,32.227,199.219,18.555,44.434,0
1533222975.105,41.992,30.762,69.824,20.508,23.438,0
1533222975.109,25.391,30.762,-238.770,18.555,84.473,0
1533222975.113,17.090,32.715,-475.098,16.113,57.617,0
1533222975.117,29.297,35.156,-227.051,15.625,9.277,0
1533222975.121,39.062,33.203,31.250,18.555,17.090,0
1533222975.124,37.598,29.297,37.598,17.578,48.828,0
1533222975.128,31.738,33.203,-150.391,19.043,28.320,0
1533222975.132,21.973,36.621,-509.277,17.578,48.828,0
1533222975.136,24.902,31.738,-325.684,20.996,32.227,0
1533222975.140,34.668,29.297,222.656,26.367,-10.254,0
1533222975.144,38.086,32.715,205.078,27.344,-3.906,0
1533222975.148,32.715,33.691,-133.301,28.320,-8.301,0
1533222975.152,15.137,33.691,-367.188,19.043,42.480,0
1533222975.156,20.020,34.668,-242.188,17.090,11.230,0
1533222975.160,35.645,32.227,140.625,21.484,40.527,0
1533222975.163,32.715,30.273,190.430,24.414,68.359,0
1533222975.167,27.832,31.738,-209.961,25.391,9.277,0
1533222975.171,22.949,30.273,-474.609,17.578,37.109,0
1533222975.175,19.043,33.691,-211.914,15.137,64.453,0
1533222975.179,25.879,33.691,139.160,17.090,1.465,0
1533222975.183,28.320,29.785,210.938,18.555,-1.465,0
1533222975.187,26.367,33.691,-33.691,17.578,56.641,0
1533222975.191,15.137,34.180,-446.777,13.184,21.484,0
1533222975.195,13.672,26.855,-328.613,6.348,-7.812,0
1533222975.199,24.902,25.879,139.648,8.301,10.742,0
1533222975.203,24.902,29.297,216.797,18.066,2.441,0
1533222975.206,13.672,25.391,21.973,18.066,1.953,0
1533222975.210,1.465,26.367,-353.027,13.672,22.949,0
1533222975.214,6.836,29.297,-517.578,13.672,-25.879,0
1533222975.218,21.484,29.297,49.316,19.531,4.883,0
1533222975.222,27.344,28.320,368.652,25.391,33.691,0
1533222975.226,25.879,27.832,130.859,26.855,11.719,0
1533222975.230,18.555,28.809,-265.137,26.855,27.344,0
1533222975.234,13.672,29.785,-366.211,27.832,18.066,0
1533222975.238,10.742,27.344,33.691,22.949,-18.555,0
1533222975.242,12.695,26.367,232.910,23.926,-21.484,0
1533222975.246,10.742,26.367,53.711,25.879,11.719,0
1533222975.249,-1.953,31.738,-215.332,19.531,81.055,0
1533222975.253,1.953,30.273,-385.254,22.461,43.945,0
1533222975.257,16.602,23.438,-26.855,20.996,2.930,0
1533222975.261,22.461,24.414,246.582,25.391,54.688,0
1533222975.265,1.465,26.855,88.867,24.902,48.828,0
1533222975.269,-11.719,27.832,-166.504,17.090,-6.348,0
1533222975.273,-8.301,29.785,-484.863,17.578,5.371,0
1533222975.277,4.395,30.762,-194.336,20.020,18.066,0
1533222975.281,16.602,29.297,309.570,20.508,18.066,0
1533222975.285,8.789,28.320,194.336,21.484,54.199,0
1533222975.288,0.977,29.297,-208.496,20.508,36.133,0
1533222975.292,2.930,28.809,-432.129,19.531,13.184,0
1533222975.296,13.184,29.785,-139.648,23.438,59.082,0
1533222975.300,15.137,29.785,108.887,29.785,31.250,0
1533222975.304,10.254,28.320,39.551,31.738,-37.598,0
1533222975.308,13.184,28.320,-174.316,27.832,41.016,0
1533222975.312,9.277,32.715,-531.250,24.902,50.781,0
1533222975.316,10.742,36.621,-341.797,25.879,1.953,0
1533222975.320,23.438,35.645,253.906,26.855,35.645,0
1533222975.324,28.809,32.715,238.281,33.203,38.574,0
1533222975.328,20.020,29.785,-119.629,35.156,18.555,0
1533222975.331,6.348,29.297,-382.324,26.855,41.016,0
1533222975.335,13.184,32.227,-244.629,29.785,44.922,0
1533222975.339,27.344,34.180,96.680,35.645,15.137,0
1533222975.343,31.250,37.598,190.430,36.621,61.035,0
1533222975.347,24.414,39.551,-102.051,34.668,18.066,0
1533222975.351,17.090,41.016,-427.734,31.250,-38.086,0
1533222975.355,19.531,39.062,-298.340,33.203,33.203,0
1533222975.359,32.227,34.668,66.895,33.691,32.227,0
1533222975.363,38.574,37.109,202.637,26.855,15.137,0
1533222975.367,30.762,37.109,95.215,22.461,1.953,0
1533222975.370,17.578,32.715,-255.859,20.020,4.883,0
1533222975.374,14.648,28.809,-360.840,18.066,-9.277,0
1533222975.378,25.391,29.297,231.934,23.438,24.414,0
1533222975.382,26.855,31.738,451.172,24.902,41.992,0
1533222975.386,16.113,32.227,147.461,24.902,-11.719,0
1533222975.390,8.301,31.250,-182.129,26.367,6.348,0
1533222975.394,15.625,33.691,-159.180,24.414,41.992,0
1533222975.398,30.762,34.180,227.051,25.879,31.250,0
1533222975.402,32.227,32.227,359.863,25.879,87.402,0
1533222975.406,25.391,31.738,196.289,23.438,131.348,0
1533222975.410,12.695,30.762,-87.402,17.578,59.570,0
1533222975.413,17.578,31.250,-275.879,15.137,-18.555,0
1533222975.417,35.645,30.762,189.453,19.531,-5.371,0
1533222975.421,36.621,29.785,597.656,20.508,49.805,0
1533222975.425,15.625,29.297,362.793,13.184,48.340,0
1533222975.429,2.441,27.832,-10.254,15.625,29.297,0
1533222975.433,5.859,29.297,-145.508,20.996,18.555,0
1533222975.437,11.719,28.320,159.180,11.719,0.488,0
1533222975.441,19.043,24.414,403.320,17.578,-4.395,0
1533222975.445,22.949,24.414,287.109,27.832,18.555,0
1533222975.449,21.484,30.273,-105.957,21.973,38.086,0
1533222975.453,16.113,34.668,-222.656,17.578,20.020,0
1533222975.456,21.973,30.273,151.367,14.648,-7.324,0
1533222975.460,29.297,28.320,436.035,16.113,26.855,0
1533222975.464,23.926,31.738,338.867,21.484,56.152,0
1533222975.468,16.113,29.297,-48.828,20.996,-7.324,0
1533222975.472,15.137,30.273,-367.188,19.043,5.859,0
1533222975.476,21.484,34.180,-58.105,18.555,18.555,0
1533222975.480,24.414,36.133,437.988,20.508,-5.371,0
1533222975.484,24.414,40.039,410.645,23.438,68.359,0
1533222975.488,20.996,40.527,29.785,24.902,24.414,0
1533222975.492,15.625,38.574,-206.543,23.438,10.254,0
1533222975.495,19.531,36.133,-36.621,19.531,81.543,0
1533222975.499,22.949,36.133,214.844,25.879,10.254,0
1533222975.503,22.461,37.598,317.383,30.762,29.297,0
1533222975.507,14.160,35.645,134.766,22.949,17.090,0
1533222975.511,10.742,33.203,-271.973,21.484,-37.598,0
1533222975.515,15.625,33.203,-175.781,25.391,28.809,0
1533222975.519,23.438,34.180,364.258,26.855,29.297,0
1533222975.523,24.414,33.691,424.316,30.273,14.160,0
1533222975.527,18.555,32.715,65.430,35.156,2.441,0
1533222975.531,11.719,31.738,-227.051,31.738,0.000,0
1533222975.535,18.066,32.227,-67.871,31.250,18.555,0
1533222975.538,25.879,33.691,261.719,38.574,2.930,0
1533222975.542,23.438,37.109,235.840,38.574,-14.648,0
1533222975.546,24.414,40.527,92.285,30.273,21.973,0
1533222975.550,19.043,38.574,-165.527,25.879,47.363,0
1533222975.554,14.160,35.645,-333.496,29.297,-30.762,0
1533222975.558,17.578,38.086,201.660,23.438,-26.367,0
1533222975.562,16.602,38.086,472.656,18.066,36.621,0
1533222975.566,15.137,38.574,166.504,21.973,29.785,0
1533222975.570,15.137,39.062,-204.102,26.855,6.348,0
1533222975.574,17.090,41.992,-198.730,24.414,48.828,0
1533222975.578,21.973,46.387,173.340,23.438,51.758,0
1533222975.581,33.691,48.340,254.883,32.715,20.508,0
1533222975.585,34.668,49.316,37.598,36.133,-6.348,0
1533222975.589,20.020,48.828,-208.008,38.574,-1.953,0
1533222975.593,17.578,51.270,-384.766,38.086,-43.945,0
1533222975.597,27.344,49.805,64.941,28.320,-62.988,0
1533222975.601,24.902,41.504,519.043,28.320,20.996,0
1533222975.605,16.113,41.992,312.012,33.203,75.195,0
1533222975.609,8.789,41.992,-72.266,35.156,54.688,0
1533222975.613,11.719,40.527,-255.371,32.715,10.254,0
1533222975.617,22.949,45.410,80.566,32.715,1.465,0
1533222975.620,23.926,42.480,395.996,29.785,1.953,0
1533222975.624,9.766,38.086,295.410,24.902,45.410,0
1533222975.628,0.488,39.062,-13.672,21.484,49.805,0
1533222975.632,10.742,40.527,-185.059,13.672,3.906,0
1533222975.636,25.391,42.480,72.754,12.207,44.922,0
1533222975.640,25.879,40.527,376.465,16.113,90.820,0
1533222975.644,25.391,38.574,316.406,16.602,52.246,0
1533222975.648,24.414,41.504,144.043,15.137,35.645,0
1533222975.652,19.043,41.504,-185.059,10.254,14.648,0
1533222975.656,17.090,38.574,-19.043,7.324,22.949,0
1533222975.660,27.832,40.039,592.773,12.207,82.520,0
1533222975.663,24.414,39.062,523.926,6.836,71.777,0
1533222975.667,15.137,41.992,141.602,7.324,18.555,0
1533222975.671,7.812,42.480,-90.820,7.812,-12.695,0
1533222975.675,11.230,40.039,131.836,2.930,0.977,0
1533222975.679,30.762,41.992,498.047,11.719,23.926,0
1533222975.683,33.691,43.945,380.859,20.996,-12.695,0
1533222975.687,24.414,43.457,158.691,25.879,3.906,0
1533222975.691,22.461,42.480,51.758,28.320,72.754,0
1533222975.695,23.926,39.062,94.727,21.973,6.348,0
1533222975.699,29.297,39.551,497.070,24.902,8.789,0
1533222975.703,35.156,41.016,631.836,29.297,45.410,0
1533222975.706,26.367,37.598,391.602,20.020,70.312,0
1533222975.710,21.973,36.621,-0.488,16.602,51.270,0
1533222975.714,22.949,35.645,-18.066,17.090,-22.949,0
1533222975.718,26.367,34.668,604.004,18.555,88.379,0
1533222975.722,30.762,34.180,690.918,20.508,92.285,0
1533222975.726,30.762,34.180,384.277,19.531,56.641,0
1533222975.730,21.973,36.133,40.527,16.602,60.547,0
1533222975.734,21.484,34.668,-51.270,17.578,-7.324,0
1533222975.738,41.992,36.133,524.414,22.949,13.184,0
1533222975.742,47.363,40.039,787.109,24.902,50.781,0
1533222975.745,28.809,35.156,474.121,24.414,26.855,0
1533222975.749,22.949,34.668,158.203,23.926,27.832,0
1533222975.753,36.621,37.109,91.797,23.926,11.719,0
1533222975.757,52.246,34.180,507.324,27.832,31.250,0
1533222975.761,57.129,36.133,710.938,31.738,47.852,0
1533222975.765,48.340,38.086,479.004,36.133,42.480,0
1533222975.769,34.180,36.133,193.359,32.715,79.102,0
1533222975.773,34.180,31.738,86.426,26.855,11.230,0
1533222975.777,40.039,30.273,362.793,30.273,-8.301,0
1533222975.781,44.434,36.133,643.066,34.668,39.551,0
1533222975.785,39.062,36.621,572.266,37.598,60.547,0
1533222975.788,36.621,35.156,273.438,40.527,45.898,0
1533222975.792,41.504,34.668,-8.301,41.504,29.297,0
1533222975.796,39.551,34.668,268.555,39.062,27.344,0
1533222975.800,45.898,33.203,759.277,42.480,44.922,0
1533222975.804,39.062,36.621,604.980,43.457,62.500,0
1533222975.808,25.879,35.156,184.570,37.598,49.316,0
1533222975.812,20.020,33.691,63.477,32.715,62.012,0
1533222975.816,28.809,35.645,371.582,34.668,30.762,0
1533222975.820,40.527,34.668,621.582,43.457,46.387,0
1533222975.824,31.250,32.715,437.500,49.805,65.430,0
1533222975.828,20.020,34.180,106.445,46.875,38.086,0
1533222975.831,23.438,35.645,-38.574,39.062,-4.883,0
1533222975.835,27.344,38.086,276.855,37.598,-12.695,0
1533222975.839,32.227,37.598,641.113,41.016,52.246,0
1533222975.843,30.762,34.180,488.770,45.898,46.875,0
1533222975.847,23.438,35.645,212.402,43.457,60.547,0
1533222975.851,14.648,34.180,-87.402,38.574,39.551,0
1533222975.855,19.531,28.320,48.828,38.086,-6.836,0
1533222975.859,31.738,32.715,467.285,41.992,2.441,0
1533222975.863,27.344,34.668,410.156,43.945,-5.859,0
1533222975.867,22.461,34.180,94.727,43.457,-4.883,0
1533222975.870,27.344,37.109,-169.434,41.016,-16.113,0
1533222975.874,34.180,30.273,-157.715,35.645,13.672,0
1533222975.878,36.621,25.879,323.730,39.062,27.344,0
1533222975.882,34.668,26.367,561.035,41.016,8.301,0
1533222975.886,24.902,24.902,227.539,32.227,36.621,0
1533222975.890,18.555,26.367,-145.996,33.203,24.414,0
1533222975.894,26.855,27.832,-95.215,37.109,-9.277,0
1533222975.898,41.016,25.879,313.965,37.109,41.504,0
1533222975.902,40.527,24.414,327.148,37.109,54.199,0
1533222975.906,23.438,25.879,35.156,37.109,5.371,0
1533222975.910,17.578,27.344,-190.430,36.621,62.500,0
1533222975.913,21.973,24.414,-152.832,37.109,90.332,0
1533222975.917,36.133,20.996,130.859,40.039,80.566,0
1533222975.921,43.945,23.438,194.824,46.875,76.172,0
1533222975.925,33.203,24.902,38.086,50.293,42.480,0
1533222975.929,28.809,24.902,-176.758,45.898,2.930,0
1533222975.933,34.180,24.414,-219.238,41.016,-9.766,0
1533222975.937,47.852,21.484,120.605,45.410,-8.301,0
1533222975.941,60.059,21.973,306.152,52.734,21.484,0
1533222975.945,47.363,22.461,88.867,47.852,62.012,0
1533222975.949,36.133,21.484,-201.660,44.922,72.754,0
1533222975.953,39.062,22.949,-429.688,45.410,43.457,0
1533222975.956,44.434,23.926,-111.328,49.316,3.906,0
1533222975.960,52.246,25.391,305.176,57.129,13.184,0
1533222975.964,47.363,24.414,-7.812,57.129,5.859,0
1533222975.968,39.062,18.555,-315.430,56.641,-20.996,0
1533222975.972,45.898,17.578,-404.785,50.781,1.465,0
1533222975.976,48.828,17.578,-156.250,42.480,13.184,0
1533222975.980,41.992,17.578,189.453,47.852,-28.809,0
1533222975.984,35.156,21.973,84.473,49.316,-17.090,0
1533222975.988,28.320,22.461,-223.633,41.016,-24.902,0
1533222975.992,35.645,22.461,-387.207,40.527,-18.555,0
1533222975.995,43.457,23.438,-145.508,42.480,-3.418,0
1533222975.999,50.781,22.949,88.867,45.898,-49.316,0
1533222976.003,48.828,20.020,40.039,48.828,12.695,0
1533222976.007,43.945,21.484,-261.230,49.805,54.688,0
1533222976.011,48.340,23.926,-530.762,45.898,11.719,0
1533222976.015,57.617,23.926,-259.277,46.387,24.902,0
1533222976.019,59.082,23.438,115.723,53.711,8.301,0
1533222976.023,51.270,22.949,33.691,57.129,-7.812,0
1533222976.027,44.922,21.973,-217.773,57.617,8.789,0
1533222976.031,39.062,18.066,-466.309,47.363,40.039,0
1533222976.035,48.340,19.043,-458.496,45.410,28.809,0
1533222976.038,64.453,21.973,49.316,54.199,13.184,0
1533222976.042,64.941,18.066,191.895,53.711,23.926,0
1533222976.046,50.781,16.602,-154.297,51.270,15.137,0
1533222976.050,45.898,19.531,-458.496,46.387,-12.207,0
1533222976.054,52.734,16.602,-301.270,47.852,23.926,0
1533222976.058,56.152,16.113,23.438,56.641,55.176,0
1533222976.062,60.547,20.996,0.977,59.570,40.039,0
1533222976.066,52.246,21.484,-153.809,51.758,24.414,0
1533222976.070,41.016,21.484,-380.371,40.527,25.879,0
1533222976.074,48.828,20.020,-482.422,35.645,6.348,0
1533222976.078,60.547,17.090,2.441,40.527,-4.395,0
1533222976.081,66.406,18.066,249.512,48.828,13.184,0
1533222976.085,58.594,20.996,-99.609,43.945,-7.324,0
1533222976.089,46.875,21.484,-378.906,35.645,24.902,0
1533222976.093,42.969,22.461,-393.066,40.039,39.062,0
1533222976.097,50.781,18.555,-16.602,41.016,15.137,0
1533222976.101,48.340,14.160,143.066,37.598,16.113,0
1533222976.105,33.203,18.066,-194.824,41.504,45.898,0
1533222976.109,37.109,20.020,-440.918,44.434,38.574,0
1533222976.113,39.551,16.113,-518.066,41.016,-12.695,0
1533222976.117,35.156,13.672,-180.664,43.945,-44.922,0
1533222976.120,43.457,12.695,226.562,52.246,-20.996,0
1533222976.124,38.086,9.766,-9.766,60.059,38.574,0
1533222976.128,29.785,8.789,-389.160,51.758,19.043,0
1533222976.132,29.785,10.742,-464.355,44.922,-13.672,0
1533222976.136,38.086,11.719,-160.156,46.387,-17.578,0
1533222976.140,47.852,8.789,51.270,44.922,4.395,0
1533222976.144,38.574,9.277,-162.109,46.875,-4.395,0
1533222976.148,29.785,15.625,-486.816,41.504,-32.715,0
1533222976.152,37.109,18.066,-658.691,38.086,-6.836,0
1533222976.156,49.805,15.625,-307.129,41.016,46.875,0
1533222976.160,58.105,14.648,95.703,36.621,4.395,0
1533222976.163,49.316,15.625,-59.082,33.691,41.992,0
1533222976.167,37.109,15.137,-381.836,34.668,95.215,0
1533222976.171,44.922,16.113,-605.469,30.762,46.387,0
1533222976.175,59.082,14.160,-363.770,30.762,0.000,0
1533222976.179,63.965,10.742,-28.320,34.668,-9.277,0
1533222976.183,52.246,7.324,-132.812,38.086,14.648,0
1533222976.187,34.668,7.324,-413.574,36.621,40.527,0
1533222976.191,33.203,12.207,-612.793,28.320,17.578,0
1533222976.195,45.410,7.812,-390.137,34.668,-0.977,0
1533222976.199,49.805,5.859,-80.566,47.852,18.555,0
1533222976.202,52.246,7.324,-228.027,50.781,-19.531,0
1533222976.206,47.852,5.859,-383.301,49.805,-9.766,0
1533222976.210,35.156,6.836,-482.910,48.340,46.875,0
1533222976.214,45.410,8.789,-486.328,52.246,23.438,0
1533222976.218,59.570,10.254,-11.230,54.688,11.719,0
1533222976.222,56.641,9.277,72.266,50.781,16.602,0
1533222976.226,43.945,5.371,-276.367,47.363,4.395,0
1533222976.230,33.691,3.906,-509.277,43.457,21.973,0
1533222976.234,42.480,5.859,-394.531,47.852,28.320,0
1533222976.238,53.223,5.371,-32.227,50.293,-7.324,0
1533222976.242,58.105,5.371,15.625,50.781,9.766,0
1533222976.245,52.734,8.789,-314.453,50.293,14.648,0
1533222976.249,38.574,9.277,-553.223,49.316,1.465,0
1533222976.253,45.410,8.301,-316.895,46.387,36.133,0
1533222976.257,59.082,11.230,108.887,49.316,45.898,0
1533222976.261,54.199,9.277,115.723,51.270,39.062,0
1533222976.265,37.109,5.371,-131.836,46.387,46.875,0
1533222976.269,32.227,9.766,-306.641,42.969,64.941,0
1533222976.273,32.715,8.301,-427.734,36.621,32.227,0
1533222976.277,41.992,2.441,-12.695,35.156,30.762,0
1533222976.281,58.105,3.418,354.492,40.527,110.840,0
1533222976.285,48.340,4.883,0.000,41.016,45.898,0
1533222976.288,39.062,8.789,-306.641,37.598,-24.414,0
1533222976.292,47.363,8.301,-294.434,33.203,20.508,0
1533222976.296,53.223,4.395,64.941,35.645,53.223,0
1533222976.300,51.758,7.324,314.453,41.504,38.574,0
1533222976.304,43.945,8.301,61.523,43.945,-10.742,0
1533222976.308,47.852,4.883,-163.574,42.969,4.395,0
1533222976.312,45.898,5.859,-307.129,41.992,9.766,0
1533222976.316,41.504,8.301,-59.570,44.922,16.602,0
1533222976.320,57.617,5.859,380.371,51.758,55.176,0
1533222976.324,62.012,5.859,215.332,50.781,8.301,0
1533222976.327,47.363,7.324,-96.680,46.875,-1.465,0
1533222976.331,40.039,7.812,-181.152,48.340,14.648,0
1533222976.335,50.781,8.301,66.406,41.504,-24.902,0
1533222976.339,57.617,4.395,293.457,38.086,-19.531,0
1533222976.343,52.734,3.906,152.832,47.363,10.742,0
1533222976.347,44.434,7.324,30.762,45.898,40.527,0
1533222976.351,45.410,9.766,-147.461,33.203,62.500,0
1533222976.355,59.082,7.812,-77.148,30.762,12.207,0
1533222976.359,71.777,5.859,423.828,37.598,-22.949,0
1533222976.363,71.777,5.371,419.922,40.039,41.992,0
1533222976.367,53.711,4.883,62.500,36.133,66.406,0
1533222976.370,44.434,7.812,-154.297,34.668,25.879,0
1533222976.374,59.570,12.695,14.648,31.250,-6.836,0
1533222976.378,65.430,10.742,398.438,29.785,-2.930,0
1533222976.382,57.617,3.906,354.980,31.250,-4.395,0
1533222976.386,54.199,5.859,-12.695,33.203,-18.066,0
1533222976.390,50.781,8.789,-165.527,23.926,8.301,0
1533222976.394,44.922,10.742,-14.648,19.531,25.391,0
1533222976.398,54.199,12.695,441.895,31.250,20.508,0
1533222976.402,57.617,10.254,569.824,31.738,72.754,0
1533222976.406,39.551,6.836,200.684,22.949,90.332,0
1533222976.410,33.203,6.836,-91.797,21.484,45.410,0
1533222976.413,34.180,7.812,27.344,32.715,14.160,0
1533222976.417,32.715,6.348,385.254,37.109,-7.324,0
1533222976.421,40.039,4.395,418.945,30.762,32.715,0
1533222976.425,39.062,2.441,124.512,32.227,46.875,0
1533222976.429,29.297,3.418,-184.570,33.203,-26.367,0
1533222976.433,41.016,6.836,-65.430,33.203,19.043,0
1533222976.437,54.199,8.789,295.410,35.156,40.527,0
1533222976.441,52.246,5.371,426.270,37.598,30.273,0
1533222976.445,42.480,3.906,177.734,40.039,40.527,0
1533222976.449,35.156,3.418,-134.766,36.133,-1.465,0
1533222976.452,41.016,2.441,-71.289,33.203,23.926,0
1533222976.456,44.434,1.953,226.562,34.180,-0.977,0
1533222976.460,43.945,2.441,396.973,31.738,10.254,0
1533222976.464,33.691,3.906,177.246,35.156,55.176,0
1533222976.468,21.484,5.859,-103.027,30.273,50.293,0
1533222976.472,23.438,6.348,-83.496,26.367,73.242,0
1533222976.476,37.598,2.930,203.613,27.344,24.902,0
1533222976.480,41.504,1.465,361.328,25.391,8.301,0
1533222976.484,24.902,5.371,186.523,29.297,84.961,0
1533222976.488,20.508,6.836,-42.480,33.203,29.785,0
1533222976.492,26.367,5.371,-89.844,34.180,6.836,0
1533222976.495,30.762,4.883,146.484,29.297,66.406,0
1533222976.499,35.156,5.859,580.078,30.762,42.480,0
1533222976.503,27.344,3.418,517.578,32.715,-8.301,0
1533222976.507,20.508,2.930,192.383,31.250,18.555,0
1533222976.511,26.855,3.906,132.812,37.109,61.523,0
1533222976.515,32.227,3.418,364.746,39.551,21.484,0
1533222976.519,38.574,3.418,617.188,40.039,1.953,0
1533222976.523,43.457,5.371,467.285,48.828,32.227,0
1533222976.527,36.133,6.836,141.602,46.387,41.504,0
1533222976.531,38.086,8.789,35.156,41.992,25.879,0
1533222976.535,51.758,7.812,399.414,47.363,47.363,0
1533222976.538,54.199,6.348,755.371,45.410,59.570,0
1533222976.542,42.969,5.859,493.164,41.504,21.973,0
1533222976.546,32.715,5.371,214.844,40.527,45.898,0
1533222976.550,38.086,5.371,132.812,37.598,69.336,0
1533222976.554,43.457,4.883,221.680,28.320,48.340,0
1533222976.558,49.805,2.930,660.645,24.414,58.105,0
1533222976.562,42.969,6.836,630.859,29.785,62.988,0
1533222976.566,35.645,10.254,224.609,27.344,4.883,0
1533222976.570,38.086,10.742,62.988,22.949,7.324,0
1533222976.574,43.457,10.742,189.453,26.367,7.324,0
1533222976.577,45.898,5.371,493.164,27.344,23.926,0
1533222976.581,44.434,4.395,529.297,36.621,56.152,0
1533222976.585,37.109,6.348,294.922,32.715,45.410,0
1533222976.589,35.156,7.812,89.355,29.297,30.762,0
1533222976.593,41.992,8.789,4.883,37.109,-13.184,0
1533222976.597,46.387,8.789,394.043,37.109,0.000,0
1533222976.601,41.992,8.301,562.500,35.645,-0.488,0
1533222976.605,31.250,6.836,250.977,28.809,-2.930,0
1533222976.609,28.320,7.812,37.598,26.855,5.371,0
1533222976.613,32.715,4.883,99.121,25.879,17.090,0
1533222976.617,35.645,8.789,416.016,29.297,33.203,0
1533222976.620,37.109,11.230,388.184,34.668,26.855,0
1533222976.624,37.109,10.254,73.242,36.133,24.414,0
1533222976.628,29.297,8.789,-27.832,30.273,33.691,0
1533222976.632,25.879,8.301,64.453,24.902,85.938,0
1533222976.636,42.480,6.836,323.730,29.297,74.707,0
1533222976.640,55.664,8.301,418.945,31.250,19.043,0
1533222976.644,45.898,14.160,144.531,28.809,21.484,0
1533222976.648,34.668,9.766,-105.957,24.414,22.949,0
1533222976.652,41.504,11.230,-106.934,24.414,35.645,0
1533222976.656,51.758,17.578,123.535,27.344,6.348,0
1533222976.660,45.898,13.672,340.332,25.879,-1.465,0
1533222976.663,41.016,13.184,150.879,26.855,-40.527,0
1533222976.667,39.551,13.184,-165.039,28.320,-74.707,0
1533222976.671,38.574,13.184,-199.707,24.902,-15.625,0
1533222976.675,47.363,18.555,135.742,31.250,-16.113,0
1533222976.679,59.082,19.043,494.141,40.039,14.160,0
1533222976.683,48.828,14.648,220.703,42.480,7.324,0
1533222976.687,42.969,16.602,-63.477,41.992,14.648,0
1533222976.691,45.898,15.137,-176.758,40.039,36.621,0
1533222976.695,52.734,11.230,-103.516,41.992,46.875,0
1533222976.699,56.152,10.742,351.562,43.457,52.734,0
1533222976.702,45.898,11.230,349.121,38.574,24.414,0
1533222976.706,33.691,15.137,-1.465,34.180,51.270,0
1533222976.710,27.344,15.137,-143.066,33.691,65.430,0
1533222976.714,35.156,13.184,40.527,35.156,80.078,0
1533222976.718,51.758,11.719,273.926,35.156,18.066,0
1533222976.722,44.922,13.672,233.887,33.203,-3.418,0
1533222976.726,29.785,11.719,93.750,35.156,80.566,0
1533222976.730,29.785,10.254,-90.820,31.250,85.449,0
1533222976.734,35.156,15.625,-84.473,29.785,49.805,0
1533222976.738,45.410,15.625,353.516,32.715,37.598,0
1533222976.742,39.551,15.137,422.363,27.344,23.926,0
1533222976.745,30.273,18.066,62.988,25.391,10.254,0
1533222976.749,27.832,18.066,-66.895,21.484,70.312,0
1533222976.753,29.785,19.531,73.730,12.695,59.082,0
1533222976.757,47.363,20.996,353.027,21.973,-12.695,0
1533222976.761,47.852,21.484,222.168,29.785,-55.664,0
1533222976.765,24.414,21.484,15.625,29.297,1.953,0
1533222976.769,33.203,20.508,-55.176,29.785,71.777,0
1533222976.773,43.457,19.043,32.227,25.391,20.996,0
1533222976.777,38.086,17.578,437.988,31.250,19.531,0
1533222976.781,45.410,16.602,452.637,35.645,38.574,0
1533222976.785,33.203,12.207,90.820,28.809,19.043,0
1533222976.788,27.832,11.719,-32.227,28.320,65.918,0
1533222976.792,37.109,15.137,-59.570,28.809,79.102,0
1533222976.796,37.109,13.672,233.398,23.926,48.340,0
1533222976.800,41.016,16.113,499.023,18.555,43.457,0
1533222976.804,34.668,19.043,195.312,17.578,67.383,0
1533222976.808,30.762,19.043,-121.582,17.090,10.742,0
1533222976.812,36.621,20.996,-128.418,8.789,-2.930,0
1533222976.816,48.340,21.484,294.434,8.789,46.875,0
1533222976.820,56.641,21.484,601.562,14.648,26.855,0
1533222976.824,47.852,20.508,275.391,19.531,-15.625,0
1533222976.827,38.574,22.949,-51.270,18.066,-34.668,0
1533222976.831,38.086,22.461,56.641,14.160,-26.367,0
1533222976.835,48.340,22.461,429.199,17.090,0.488,0
1533222976.839,55.176,23.438,556.641,20.996,7.324,0
1533222976.843,47.852,21.973,276.367,21.973,-16.113,0
1533222976.847,35.645,23.438,78.125,18.066,36.133,0
1533222976.851,33.691,19.043,50.781,12.695,42.480,0
1533222976.855,41.016,18.555,265.137,18.066,14.160,0
1533222976.859,48.340,21.484,503.906,20.508,20.020,0
1533222976.863,40.039,16.113,362.305,20.020,6.348,0
1533222976.867,29.297,16.602,183.105,18.555,-2.930,0
1533222976.870,29.785,16.113,119.141,16.602,38.086,0
1533222976.874,35.156,11.230,324.219,20.508,6.348,0
1533222976.878,37.598,16.113,658.203,24.902,25.879,0
1533222976.882,34.180,16.113,418.457,19.043,58.594,0
1533222976.886,26.855,15.625,108.398,15.625,0.000,0
1533222976.890,34.180,17.578,138.184,19.043,29.297,0
1533222976.894,40.527,18.066,338.867,16.113,17.090,0
1533222976.898,35.645,16.113,648.438,15.137,3.906,0
1533222976.902,35.156,18.066,427.246,19.043,-3.418,0
1533222976.906,30.273,20.996,106.445,15.625,-31.738,0
1533222976.909,33.203,19.531,148.926,17.090,-13.184,0
1533222976.913,47.852,17.090,225.586,20.996,-13.672,0
1533222976.917,54.199,16.113,538.574,18.066,3.418,0
1533222976.921,58.105,17.578,679.688,18.555,-49.805,0
1533222976.925,51.270,21.484,384.766,18.066,-24.414,0
1533222976.929,36.621,24.414,214.844,17.090,40.527,0
1533222976.933,42.969,23.926,349.121,21.484,44.434,0
1533222976.937,49.316,19.531,608.398,27.344,31.250,0
1533222976.941,44.922,17.578,503.418,30.273,-8.301,0
1533222976.945,38.086,18.555,247.559,27.344,18.066,0
1533222976.949,40.039,18.555,75.195,26.855,0.488,0
1533222976.952,49.805,20.996,97.168,24.902,-22.949,0
1533222976.956,54.688,23.926,473.145,24.902,-28.320,0
1533222976.960,46.875,23.926,676.758,25.391,-36.621,0
1533222976.964,40.039,21.973,341.309,27.832,-18.555,0
1533222976.968,35.156,20.508,121.094,28.809,-11.719,0
1533222976.972,39.551,20.996,261.230,24.902,45.898,0
1533222976.976,50.293,26.367,556.152,26.855,95.703,0
1533222976.980,52.734,27.832,534.180,29.297,52.246,0
1533222976.984,40.527,26.367,230.469,29.297,44.922,0
1533222976.988,28.809,21.484,49.316,24.902,59.082,0
1533222976.992,42.480,19.531,103.516,24.414,46.387,0
1533222976.995,57.129,25.391,313.477,26.855,4.883,0
1533222976.999,49.316,26.367,423.340,23.438,25.391,0
1533222977.003,37.598,26.367,210.449,26.367,22.461,0
1533222977.007,31.738,28.809,79.102,24.414,-9.277,0
1533222977.011,38.086,29.785,16.113,14.648,6.836,0
1533222977.015,41.016,28.320,171.387,13.672,-20.020,0
1533222977.019,40.527,28.320,545.410,17.090,-8.789,0
1533222977.023,36.621,27.832,333.984,13.672,41.016,0
1533222977.027,27.344,27.832,-27.832,10.742,24.902,0
1533222977.031,24.902,26.855,-81.543,13.184,36.621,0
1533222977.034,33.203,21.973,153.320,20.508,-2.441,0
1533222977.038,40.527,22.461,392.578,28.320,19.043,0
1533222977.042,33.203,26.367,91.309,24.414,85.938,0
1533222977.046,24.414,24.902,-176.270,24.902,65.918,0
1533222977.050,25.391,25.879,-155.273,27.832,49.805,0
1533222977.054,35.645,30.273,-102.051,24.414,-40.039,0
1533222977.058,46.875,29.785,302.246,24.414,-27.832,0
1533222977.062,37.109,24.902,281.738,24.414,46.875,0
1533222977.066,25.879,24.902,-103.027,19.531,62.988,0
1533222977.070,23.926,23.926,-255.371,12.695,20.996,0
1533222977.074,31.738,22.461,-12.695,8.789,31.250,0
1533222977.077,34.668,22.461,291.992,18.066,91.797,0
1533222977.081,22.461,21.484,78.125,24.414,60.547,0
1533222977.085,16.113,21.484,-260.742,19.043,23.438,0
1533222977.089,13.184,21.973,-431.152,13.184,-27.344,0
1533222977.093,19.043,21.973,-140.137,12.695,-12.695,0
1533222977.097,26.367,19.043,259.766,18.555,-9.766,0
1533222977.101,16.113,20.508,173.340,17.578,-10.742,0
1533222977.105,4.883,22.461,-116.211,12.695,49.316,0
1533222977.109,6.348,22.949,-325.684,11.230,-2.441,0
1533222977.113,20.508,20.996,-91.309,15.137,-26.367,0
1533222977.117,30.273,18.066,333.008,18.555,6.348,0
1533222977.120,15.137,19.043,288.574,18.066,22.461,0
1533222977.124,0.000,19.043,-49.805,15.137,18.066,0
1533222977.128,-0.488,22.949,-160.156,12.207,18.066,0
1533222977.132,1.953,24.414,-14.160,10.254,9.766,0
1533222977.136,7.812,21.484,262.695,19.531,12.207,0
1533222977.140,3.906,20.508,313.477,23.926,1.953,0
1533222977.144,1.465,18.066,83.008,16.602,-1.953,0
1533222977.148,2.441,19.043,75.684,15.625,22.461,0
1533222977.152,0.977,20.996,113.770,16.113,67.383,0
1533222977.156,14.648,20.996,232.910,12.695,41.504,0
1533222977.159,15.137,20.996,585.938,16.113,41.504,0
1533222977.163,4.883,26.855,361.816,20.020,43.945,0
1533222977.167,3.418,29.297,30.273,18.066,-15.625,0
1533222977.171,12.695,29.297,214.355,19.531,34.668,0
1533222977.175,29.785,29.785,560.059,20.508,103.027,0
1533222977.179,25.391,28.320,592.285,17.090,55.664,0
1533222977.183,2.930,28.809,219.238,20.996,61.035,0
1533222977.187,-5.371,23.438,70.312,22.949,85.938,0
1533222977.191,3.418,25.879,115.234,19.043,-0.488,0
1533222977.195,16.602,27.832,343.750,18.066,12.207,0
1533222977.199,18.066,24.902,694.336,19.043,62.012,0
1533222977.202,21.973,32.227,472.656,27.832,52.246,0
1533222977.206,19.043,35.645,184.570,26.855,60.547,0
1533222977.210,10.742,31.738,144.043,16.113,29.785,0
1533222977.214,23.438,27.832,391.113,18.066,-0.488,0
1533222977.218,31.738,28.320,620.605,17.578,0.000,0
1533222977.222,21.484,29.297,376.465,14.160,37.109,0
1533222977.226,15.625,30.762,132.812,18.066,46.875,0
1533222977.230,24.902,30.273,83.496,17.578,20.996,0
1533222977.234,27.832,29.785,392.090,15.137,47.363,0
1533222977.238,24.902,30.273,716.797,16.113,85.449,0
1533222977.242,21.973,30.762,467.773,22.949,78.613,0
1533222977.245,18.066,33.203,165.527,26.855,68.359,0
1533222977.249,19.043,30.273,110.352,20.996,20.020,0
1533222977.253,25.879,25.879,233.398,17.090,-4.395,0
1533222977.257,27.832,23.926,580.078,16.113,15.625,0
1533222977.261,26.855,24.414,575.684,18.066,33.203,0
1533222977.265,11.719,21.484,212.402,16.113,29.785,0
1533222977.269,7.812,22.461,95.703,16.602,-41.504,0
1533222977.273,22.949,25.391,351.562,15.625,-11.719,0
1533222977.277,33.203,28.809,591.797,18.555,43.457,0
1533222977.281,38.574,30.762,446.289,24.902,15.137,0
1533222977.284,29.297,29.297,211.914,20.020,28.320,0
1533222977.288,28.320,29.297,208.496,16.602,24.902,0
1533222977.292,32.227,26.367,364.258,17.578,-12.695,0
1533222977.296,36.621,26.855,658.691,23.438,43.945,0
1533222977.300,35.156,32.715,599.121,27.832,85.938,0
1533222977.304,19.043,33.203,265.625,22.461,111.328,0
1533222977.308,20.996,30.273,174.316,23.926,70.801,0
1533222977.312,32.715,28.320,169.922,22.461,16.113,0
1533222977.316,34.180,28.809,450.195,21.484,32.227,0
1533222977.320,31.738,28.809,634.277,22.949,-9.766,0
1533222977.324,20.996,25.879,214.355,19.531,-38.574,0
1533222977.327,16.602,25.879,110.840,18.555,-6.836,0
1533222977.331,21.484,25.879,269.531,18.555,39.551,0
1533222977.335,32.715,25.879,465.332,13.672,37.598,0
1533222977.339,34.180,25.879,698.730,20.020,30.273,0
1533222977.343,17.090,21.973,420.410,20.020,40.527,0
1533222977.347,14.648,20.996,131.348,14.648,-2.441,0
1533222977.351,31.250,21.973,194.336,19.531,-23.926,0
1533222977.355,47.852,20.996,532.227,27.344,54.199,0
1533222977.359,39.062,20.996,645.996,21.484,118.164,0
1533222977.363,17.090,24.414,252.930,16.113,31.738,0
1533222977.367,15.137,26.367,38.574,17.578,-25.879,0
1533222977.370,23.438,29.297,66.895,20.996,11.719,0
1533222977.374,28.809,26.855,269.531,26.367,-6.348,0
1533222977.378,30.273,26.367,647.461,25.879,25.391,0
1533222977.382,20.996,31.250,416.992,18.066,7.324,0
1533222977.386,9.277,32.227,73.242,10.742,-27.832,0
1533222977.390,15.625,30.762,103.027,10.742,27.344,0
1533222977.394,19.531,28.809,328.613,8.789,0.000,0
1533222977.398,20.508,29.297,538.086,9.277,-9.766,0
1533222977.402,15.137,29.785,298.828,6.348,21.484,0
1533222977.406,10.254,28.809,0.000,1.953,-1.953,0
1533222977.409,14.648,25.391,27.832,1.465,23.926,0
1533222977.413,23.438,26.367,278.320,5.371,44.434,0
1533222977.417,25.879,29.297,402.832,11.230,44.922,0
1533222977.421,21.484,29.785,174.316,12.207,27.344,0
1533222977.425,21.484,29.785,0.977,13.184,23.438,0
1533222977.429,22.949,26.367,39.551,8.789,31.250,0
1533222977.433,37.109,28.809,65.430,11.230,12.695,0
1533222977.437,41.992,34.180,319.336,19.531,29.297,0
1533222977.441,27.832,33.203,380.859,20.020,51.270,0
1533222977.445,17.090,32.227,4.395,21.973,59.570,0
1533222977.449,17.578,33.203,-193.359,27.344,0.000,0
1533222977.452,28.809,33.203,94.727,31.250,2.441,0
1533222977.456,41.016,32.227,432.617,32.715,30.762,0
1533222977.460,40.527,29.785,270.020,32.715,55.664,0
1533222977.464,30.273,30.273,-146.484,28.809,77.148,0
1533222977.468,21.973,34.668,-211.914,22.461,60.547,0
1533222977.472,32.227,34.180,36.621,20.996,34.180,0
1533222977.476,41.016,31.738,287.598,20.020,12.207,0
1533222977.480,26.855,32.227,267.578,17.578,58.594,0
1533222977.484,14.160,30.762,-102.539,12.695,74.219,0
1533222977.488,14.160,30.273,-199.707,6.836,62.500,0
1533222977.492,22.461,28.809,-187.988,4.883,12.695,0
1533222977.495,21.973,26.367,57.129,9.766,3.906,0
1533222977.499,15.625,28.809,305.176,3.418,39.062,0
1533222977.503,9.277,33.203,-118.164,-1.465,24.902,0
1533222977.507,4.395,34.180,-292.480,-0.977,8.301,0
1533222977.511,20.996,33.203,-153.809,1.465,30.273,0
1533222977.515,32.715,34.180,60.547,8.301,40.039,0
1533222977.519,22.461,35.645,293.457,8.301,14.648,0
1533222977.523,17.578,37.598,40.039,10.254,47.852,0
1533222977.527,20.020,36.133,-221.680,17.090,17.578,0
1533222977.531,32.227,34.180,-135.742,19.531,19.043,0
1533222977.534,46.875,36.133,160.645,24.414,62.988,0
1533222977.538,51.758,37.109,245.117,29.297,47.363,0
1533222977.542,39.551,35.645,-54.199,22.949,45.410,0
1533222977.546,29.785,34.180,-232.422,15.137,53.711,0
1533222977.550,32.715,35.156,-165.039,19.043,41.016,0
1533222977.554,41.016,36.133,75.684,21.484,-14.160,0
1533222977.558,41.016,34.668,199.707,23.438,-8.301,0
1533222977.562,28.320,30.762,-31.250,21.973,40.527,0
1533222977.566,25.879,31.738,-179.688,13.184,-30.273,0
1533222977.570,31.738,35.645,-49.316,14.648,-36.133,0
1533222977.574,33.203,34.180,60.547,12.207,22.949,0
1533222977.577,31.250,35.156,270.996,8.789,7.324,0
1533222977.581,25.879,37.109,192.871,11.230,-32.715,0
1533222977.585,21.484,34.668,-88.867,13.184,-16.113,0
1533222977.589,23.438,32.715,-89.355,16.113,-41.016,0
1533222977.593,35.156,33.691,201.660,17.578,-6.836,0
1533222977.597,35.645,31.250,435.059,22.461,52.734,0
1533222977.601,29.785,28.320,184.082,20.996,12.695,0
1533222977.605,24.414,32.227,-145.996,16.602,10.254,0
1533222977.609,19.043,36.621,-93.262,13.184,22.949,0
1533222977.613,35.645,35.156,114.746,12.695,23.438,0
1533222977.617,44.434,33.203,335.449,18.066,44.922,0
1533222977.620,36.621,34.180,371.582,14.160,54.199,0
1533222977.624,31.250,32.227,102.539,16.113,41.016,0
1533222977.628,29.297,31.250,8.301,19.043,4.883,0
1533222977.632,38.086,33.691,198.242,17.090,-38.574,0
1533222977.636,39.062,28.809,494.141,21.484,23.926,0
1533222977.640,31.250,26.367,373.047,22.461,45.898,0
1533222977.644,28.320,31.250,-7.324,20.508,-17.090,0
1533222977.648,30.762,35.156,-23.438,17.578,0.488,0
1533222977.652,43.945,34.668,91.797,18.066,52.246,0
1533222977.656,47.852,33.203,276.855,18.555,5.371,0
1533222977.659,33.203,37.109,419.434,17.578,-9.766,0
1533222977.663,26.855,33.691,103.516,14.160,-11.230,0
1533222977.667,30.273,30.273,-5.371,14.648,-10.254,0
1533222977.671,36.133,33.691,100.098,14.648,33.691,0
1533222977.675,38.574,33.203,250.000,17.578,-25.391,0
1533222977.679,35.156,35.645,412.598,19.531,-21.484,0
1533222977.683,25.391,37.109,124.023,14.648,27.344,0
1533222977.687,17.578,35.645,-77.637,15.137,11.230,0
1533222977.691,24.414,39.062,55.176,15.625,18.555,0
1533222977.695,34.180,37.109,313.965,14.160,17.090,0
1533222977.699,29.297,32.715,308.105,11.230,71.289,0
1533222977.702,16.113,37.598,-10.254,7.812,68.848,0
1533222977.706,10.742,41.504,-66.895,9.766,59.570,0
1533222977.710,17.578,38.574,-17.578,12.695,53.223,0
1533222977.714,25.879,33.203,188.965,14.648,18.555,0
1533222977.718,25.879,30.273,303.711,17.090,-45.410,0
1533222977.722,10.254,31.738,-11.719,14.648,-50.293,0
1533222977.726,3.418,33.203,-163.574,13.672,-5.371,0
1533222977.730,17.090,33.203,-103.027,15.137,-32.715,0
1533222977.734,26.367,31.250,167.969,19.531,8.301,0
1533222977.738,21.973,32.715,384.766,20.508,66.406,0
1533222977.741,7.812,36.621,80.078,18.555,61.523,0
1533222977.745,1.465,33.203,-252.441,19.043,70.801,0
1533222977.749,10.254,30.762,-163.086,16.602,45.410,0
1533222977.753,15.625,33.203,17.578,12.695,20.020,0
1533222977.757,14.648,34.668,194.824,11.719,19.043,0
1533222977.761,5.859,35.645,252.930,13.184,25.391,0
1533222977.765,-1.953,35.156,-32.227,13.672,40.039,0
1533222977.769,-7.812,29.297,-99.609,9.277,-5.859,0
1533222977.773,-0.977,28.320,166.504,10.742,15.137,0
1533222977.777,6.348,31.250,312.500,15.137,7.324,0
1533222977.781,-2.441,31.738,93.262,16.602,-33.203,0
1533222977.784,-7.812,30.762,-152.344,12.695,38.086,0
1533222977.788,-9.766,24.902,-131.836,10.254,54.688,0
1533222977.792,2.930,26.367,-2.441,15.137,42.969,0
1533222977.796,12.695,29.297,215.332,20.020,-6.836,0
1533222977.800,7.324,27.832,260.742,23.438,-44.434,0
1533222977.804,3.418,26.367,-64.941,20.020,-29.297,0
1533222977.808,5.859,26.367,-65.430,15.137,17.090,0
1533222977.812,12.695,25.391,140.625,19.043,12.207,0
1533222977.816,10.742,27.832,373.047,23.926,23.438,0
1533222977.820,1.465,27.832,293.457,18.555,65.430,0
1533222977.824,-2.930,23.926,-80.078,7.324,23.926,0
1533222977.827,-4.395,25.879,-119.141,7.324,12.207,0
1533222977.831,4.883,26.367,122.070,11.230,40.527,0
1533222977.835,10.742,26.367,394.043,13.672,104.004,0
1533222977.839,8.301,30.762,235.352,12.695,102.539,0
1533222977.843,4.395,31.250,-153.320,12.695,53.223,0
1533222977.847,3.906,28.809,-87.402,12.695,41.016,0
1533222977.851,16.113,30.762,80.566,9.766,9.766,0
1533222977.855,25.879,31.250,201.172,10.254,-1.953,0
1533222977.859,22.461,32.227,388.672,13.672,50.781,0
1533222977.863,6.836,32.227,71.289,12.695,23.926,0
1533222977.866,5.371,28.320,-144.531,11.230,-27.832,0
1533222977.870,21.973,27.832,20.020,15.625,20.508,0
1533222977.874,28.320,28.809,235.840,22.949,17.090,0
1533222977.878,28.320,34.180,249.512,20.996,-43.945,0
1533222977.882,22.949,41.016,-22.461,15.625,12.207,0
1533222977.886,19.043,39.062,-222.656,15.137,61.035,0
1533222977.890,28.809,35.645,-89.844,16.602,60.059,0
1533222977.894,34.180,33.691,140.625,18.066,94.238,0
1533222977.898,24.902,30.273,305.176,20.508,104.004,0
1533222977.902,20.508,28.809,36.621,20.508,41.992,0
1533222977.906,22.461,28.809,-175.293,15.137,27.832,0
1533222977.909,30.762,31.738,-4.395,13.184,83.496,0
1533222977.913,39.062,34.668,194.824,21.484,81.543,0
1533222977.917,33.203,34.180,288.574,23.438,70.312,0
1533222977.921,22.461,33.203,-2.930,20.996,47.852,0
1533222977.925,14.648,33.203,-229.004,18.555,31.738,0
1533222977.929,18.555,36.133,-104.492,17.578,36.133,0
1533222977.933,36.621,36.621,104.004,23.926,4.883,0
1533222977.937,37.598,33.691,182.129,31.250,-42.969,0
1533222977.941,28.809,33.691,101.562,32.715,19.531,0
1533222977.945,26.367,30.762,-43.457,27.344,73.242,0
1533222977.949,30.273,29.785,9.277,24.414,50.293,0
1533222977.952,45.410,32.227,50.781,27.344,6.836,0
1533222977.956,46.387,33.691,150.391,26.855,-19.043,0
1533222977.960,35.645,36.133,285.645,24.414,26.367,0
1533222977.964,26.855,36.621,7.324,22.949,0.977,0
1533222977.968,23.438,35.645,-11.230,24.902,-7.812,0
1533222977.972,28.809,32.715,258.301,25.879,40.039,0
1533222977.976,36.133,34.668,396.484,24.902,11.719,0
1533222977.980,32.715,35.156,208.008,25.391,67.871,0
1533222977.984,23.926,36.133,-90.332,22.949,43.945,0
1533222977.988,33.203,40.039,49.805,23.926,9.277,0
1533222977.991,47.852,41.992,180.176,33.203,58.105,0
1533222977.995,51.758,42.480,251.465,37.598,6.348,0
1533222977.999,39.551,40.527,372.070,28.809,-27.344,0
1533222978.003,28.809,37.598,116.211,23.438,46.875,0
1533222978.007,32.715,39.551,-16.602,22.949,18.066,0
1533222978.011,35.645,40.527,179.688,23.926,42.480,0
1533222978.015,35.156,38.574,349.609,24.902,33.203,0
1533222978.019,35.645,36.133,345.703,23.926,0.000,0
1533222978.023,30.273,37.109,37.109,20.020,19.043,0
1533222978.027,24.902,41.016,-148.438,17.578,-23.438,0
1533222978.031,30.762,41.016,62.988,15.137,15.137,0
1533222978.034,33.691,40.039,296.387,13.184,25.879,0
1533222978.038,26.855,40.039,425.781,15.137,13.184,0
1533222978.042,20.508,42.480,166.504,10.254,35.645,0
1533222978.046,17.090,41.992,-47.852,12.207,17.090,0
1533222978.050,24.414,40.039,65.430,20.020,-10.254,0
1533222978.054,41.016,39.551,282.227,24.902,-28.809,0
1533222978.058,41.992,39.062,317.871,26.855,-51.758,0
1533222978.062,32.715,43.945,34.180,24.414,-20.996,0
1533222978.066,33.691,50.293,-71.777,29.297,69.336,0
1533222978.070,37.598,45.898,-23.926,27.344,20.020,0
1533222978.074,32.227,37.598,180.176,18.066,-2.441,0
1533222978.077,27.832,36.133,341.309,22.461,85.449,0
1533222978.081,22.461,39.551,80.078,24.902,52.246,0
1533222978.085,18.066,38.574,-130.859,20.508,23.438,0
1533222978.089,20.996,36.621,24.902,18.066,44.434,0
1533222978.093,31.738,37.598,76.660,21.484,17.578,0
1533222978.097,34.668,38.574,178.223,23.926,-18.555,0
1533222978.101,25.391,37.109,149.902,23.438,-12.695,0
1533222978.105,22.461,36.621,-136.719,21.484,-17.090,0
1533222978.109,25.879,38.574,-38.086,20.020,16.602,0
1533222978.113,35.156,37.109,210.449,17.090,46.387,0
1533222978.116,41.504,36.133,252.441,17.578,-1.465,0
1533222978.120,29.297,35.645,-48.340,19.531,-38.086,0
1533222978.124,15.137,38.086,-329.102,16.602,-45.410,0
1533222978.128,15.137,36.133,-78.125,13.184,11.230,0
1533222978.132,28.320,32.227,114.746,14.160,54.688,0
1533222978.136,32.227,33.203,134.277,12.695,-12.695,0
1533222978.140,23.926,36.621,170.898,17.090,-27.344,0
1533222978.144,20.508,39.551,-154.785,18.555,-14.160,0
1533222978.148,22.949,38.574,-124.023,12.207,24.902,0
1533222978.152,36.621,36.621,123.047,13.672,13.672,0
1533222978.156,40.527,32.715,280.273,20.996,40.527,0
1533222978.159,27.344,30.273,126.953,20.020,72.266,0
1533222978.163,23.438,33.691,-204.102,18.066,62.012,0
1533222978.167,25.879,32.715,-263.184,20.020,33.203,0
1533222978.171,30.273,31.250,-66.895,17.578,-23.926,0
1533222978.175,33.203,35.645,260.254,13.672,-14.160,0
1533222978.179,29.297,35.645,254.883,14.648,72.754,0
1533222978.183,16.602,33.203,-176.270,16.602,66.895,0
1533222978.187,13.184,33.691,-189.941,12.207,0.977,0
1533222978.191,20.996,33.691,31.738,12.695,11.230,0
1533222978.195,25.879,34.180,194.824,20.020,12.207,0
1533222978.199,26.855,38.086,217.773,14.160,14.160,0
1533222978.202,14.160,35.156,-81.543,7.812,48.828,0
1533222978.206,10.254,34.180,-117.188,12.207,83.008,0
1533222978.210,26.367,33.691,21.973,15.137,55.176,0
1533222978.214,37.109,31.738,-29.297,16.113,-0.488,0
1533222978.218,37.109,37.109,140.625,18.066,42.969,0
1533222978.222,24.414,39.551,101.562,18.555,33.203,0
1533222978.226,11.230,37.598,-81.543,15.625,8.301,0
1533222978.230,17.578,36.133,48.828,16.113,36.621,0
1533222978.234,30.273,36.133,238.281,19.531,21.973,0
1533222978.238,33.203,40.527,278.320,22.461,8.789,0
1533222978.241,22.461,38.574,-18.066,21.973,22.461,0
1533222978.245,15.625,34.180,-123.047,19.043,5.859,0
1533222978.249,23.438,37.109,44.922,16.602,-17.578,0
1533222978.253,37.109,38.574,337.402,22.949,79.102,0
1533222978.257,35.645,35.645,385.742,24.902,124.512,0
1533222978.261,20.996,34.668,-6.348,17.090,89.355,0
1533222978.265,14.648,35.645,-214.355,9.277,41.504,0
1533222978.269,21.973,35.645,97.168,9.766,2.441,0
1533222978.273,30.762,37.598,237.305,13.184,37.598,0
1533222978.277,26.855,39.062,267.578,10.254,6.348,0
1533222978.281,16.113,38.574,265.625,10.254,-8.789,0
1533222978.284,12.695,36.133,27.344,10.742,41.992,0
1533222978.288,16.113,38.086,118.652,9.766,84.961,0
1533222978.292,26.855,41.504,298.828,6.836,35.156,0
1533222978.296,32.227,37.109,323.730,7.812,-35.156,0
1533222978.300,21.484,35.156,197.266,10.254,-19.531,0
1533222978.304,15.625,37.109,-6.836,7.324,22.461,0
1533222978.308,20.508,39.062,13.672,6.348,14.160,0
1533222978.312,22.461,35.156,183.594,10.254,35.156,0
1533222978.316,20.020,34.180,352.051,13.672,63.965,0
1533222978.320,14.160,34.668,346.191,14.160,30.273,0
1533222978.324,4.883,31.738,29.785,17.578,-10.254,0
1533222978.327,7.812,31.738,30.762,21.973,-3.418,0
1533222978.331,17.090,32.227,234.375,19.531,-7.812,0
1533222978.335,14.648,31.250,391.113,17.578,-4.883,0
1533222978.339,6.836,31.738,267.578,15.137,25.879,0
1533222978.343,-0.488,33.203,-63.477,13.184,-1.465,0
1533222978.347,-3.906,32.715,-25.391,9.277,0.000,0
1533222978.351,4.883,31.250,150.879,7.324,-10.742,0
1533222978.355,8.301,33.691,264.648,8.301,-18.066,0
1533222978.359,9.277,38.574,199.219,9.277,16.602,0
1533222978.363,-3.418,35.645,-56.641,3.418,-8.789,0
1533222978.366,-11.230,32.227,-1.465,-1.953,-36.133,0
1533222978.370,2.930,34.180,146.484,2.441,-35.156,0
1533222978.374,10.254,35.645,320.312,4.883,9.766,0
1533222978.378,7.324,35.156,305.176,6.348,17.578,0
1533222978.382,-0.977,34.668,-50.293,0.488,-10.742,0
1533222978.386,1.465,34.668,-73.730,-2.441,27.832,0
1533222978.390,15.625,38.086,102.051,3.418,39.551,0
1533222978.394,20.508,37.109,189.453,10.254,21.973,0
1533222978.398,16.602,31.738,293.457,12.695,45.898,0
1533222978.402,8.301,28.320,15.137,10.742,69.824,0
1533222978.406,4.395,27.344,-138.672,10.254,60.059,0
1533222978.409,15.625,22.461,78.613,21.484,30.762,0
1533222978.413,27.832,26.855,326.660,30.762,51.270,0
1533222978.417,16.602,38.574,341.309,21.484,18.555,0
1533222978.421,5.859,35.645,37.109,17.578,14.648,0
1533222978.425,7.812,29.297,-113.281,20.020,47.363,0
1533222978.429,15.137,29.297,53.711,19.043,21.484,0
1533222978.433,28.320,28.809,169.922,20.508,42.969,0
1533222978.437,34.180,30.273,261.230,21.973,72.266,0
1533222978.441,29.297,30.273,153.809,22.461,69.336,0
1533222978.445,17.578,28.320,-118.164,19.043,48.828,0
1533222978.448,21.484,29.785,-38.574,18.555,0.977,0
1533222978.452,35.156,29.785,97.168,19.043,-19.531,0
1533222978.456,26.855,25.879,260.742,17.090,22.461,0
1533222978.460,15.137,28.320,246.094,16.113,69.824,0
1533222978.464,12.207,29.297,-119.141,19.531,28.809,0
1533222978.468,14.648,26.855,-18.066,15.625,16.602,0
1533222978.472,22.461,26.855,272.949,13.184,9.766,0
1533222978.476,26.855,29.785,322.266,20.996,-11.719,0
1533222978.480,21.973,33.691,90.820,25.391,0.000,0
1533222978.484,14.648,34.668,-156.250,21.484,39.062,0
1533222978.488,19.531,34.668,-52.734,19.043,61.523,0
1533222978.491,26.855,36.621,152.832,19.531,57.129,0
1533222978.495,34.180,32.715,183.594,28.320,52.734,0
1533222978.499,30.273,29.297,-28.809,35.645,41.992,0
1533222978.503,20.508,28.809,-216.797,28.809,44.434,0
1533222978.507,26.855,29.297,-55.664,22.461,46.387,0
1533222978.511,39.062,34.180,29.785,26.855,34.180,0
1533222978.515,44.434,36.133,47.852,24.902,24.902,0
1533222978.519,32.715,33.203,97.168,18.066,20.508,0
1533222978.523,18.555,32.715,-208.984,20.020,3.418,0
1533222978.527,22.461,39.062,-224.121,23.438,-52.246,0
1533222978.531,33.203,37.109,52.734,26.367,-10.742,0
1533222978.534,39.551,34.180,179.688,27.344,31.738,0
1533222978.538,32.715,34.668,52.734,24.414,6.836,0
1533222978.542,19.531,34.180,-294.434,23.926,55.664,0
1533222978.546,18.555,33.203,-322.754,24.414,43.945,0
1533222978.550,27.832,32.227,-18.066,25.391,11.719,0
1533222978.554,33.203,32.715,74.219,24.902,54.688,0
1533222978.558,25.879,32.227,82.520,20.508,39.062,0
1533222978.562,17.090,33.203,-86.426,16.113,20.020,0
1533222978.566,18.555,35.645,-238.770,15.137,19.531,0
1533222978.570,29.785,35.156,-44.434,15.625,21.484,0
1533222978.573,36.133,34.668,199.219,22.461,62.988,0
1533222978.577,31.250,34.668,54.199,25.879,6.836,0
1533222978.581,20.996,35.156,-234.863,20.020,-27.344,0
1533222978.585,18.555,35.645,-261.230,19.043,-7.812,0
1533222978.589,30.273,33.203,-83.496,20.020,28.809,0
1533222978.593,35.156,33.691,18.555,20.020,62.012,0
1533222978.597,30.273,36.621,59.082,22.461,4.395,0
1533222978.601,23.926,39.062,16.113,23.926,48.340,0
1533222978.605,16.602,36.133,-207.520,18.066,75.195,0
1533222978.609,23.438,33.691,-108.398,18.555,15.137,0
1533222978.613,33.691,37.598,146.973,25.391,68.359,0
1533222978.616,32.227,37.109,130.371,24.414,82.031,0
1533222978.620,32.715,36.133,-193.359,20.996,10.254,0
1533222978.624,29.297,36.133,-342.285,20.508,37.598,0
1533222978.628,31.250,34.180,-201.660,25.879,-6.836,0
1533222978.632,43.457,33.691,51.270,29.785,-5.371,0
1533222978.636,46.875,35.645,53.711,31.250,37.598,0
1533222978.640,33.691,37.598,-209.473,27.832,47.852,0
1533222978.644,19.043,34.180,-382.324,23.438,44.922,0
1533222978.648,23.438,33.203,-201.172,17.578,-5.371,0
1533222978.652,36.621,34.180,-1.465,20.508,-25.391,0
1533222978.656,38.086,33.203,79.590,24.902,21.973,0
1533222978.659,27.832,36.133,-91.309,20.508,56.152,0
1533222978.663,22.949,34.180,-409.668,20.996,38.086,0
1533222978.667,22.949,30.762,-328.613,22.949,-28.809,0
1533222978.671,30.762,31.738,-158.203,18.555,-2.930,0
1533222978.675,41.504,30.273,-82.520,20.020,62.012,0
1533222978.679,34.668,29.785,-137.207,25.879,0.488,0
1533222978.683,20.996,38.086,-457.031,18.066,4.883,0
1533222978.687,23.926,41.504,-342.773,8.789,85.449,0
1533222978.691,24.902,37.598,-133.789,6.836,44.922,0
1533222978.695,28.809,37.598,-149.414,13.672,-40.039,0
1533222978.698,29.785,39.551,-63.965,16.113,21.484,0
1533222978.702,14.160,37.109,-295.410,12.695,39.551,0
1533222978.706,18.066,39.551,-319.336,17.578,75.195,0
1533222978.710,36.621,41.504,-130.859,18.066,116.699,0
1533222978.714,45.410,37.109,-57.617,18.555,69.824,0
1533222978.718,40.527,36.133,-162.109,19.531,36.133,0
1533222978.722,26.855,33.203,-450.195,17.090,32.715,0
1533222978.726,23.438,30.273,-432.129,15.137,62.012,0
1533222978.730,44.922,31.250,-272.949,18.066,41.992,0
1533222978.734,50.293,32.227,-221.680,23.438,18.066,0
1533222978.738,41.016,32.227,-128.418,19.043,24.902,0
1533222978.741,36.133,31.250,-291.504,17.090,1.953,0
1533222978.745,34.668,29.785,-437.012,16.602,-10.254,0
1533222978.749,45.410,33.203,-275.391,21.973,8.789,0
1533222978.753,52.246,31.250,-33.203,23.438,27.832,0
1533222978.757,38.086,28.320,-29.297,17.578,40.039,0
1533222978.761,24.902,27.344,-386.230,19.531,22.949,0
1533222978.765,32.715,25.391,-510.742,22.949,13.184,0
1533222978.769,41.016,27.344,-279.297,21.973,18.555,0
1533222978.773,53.223,28.320,-109.375,25.391,-34.180,0
1533222978.777,48.340,31.738,-190.430,23.926,-25.879,0
1533222978.781,30.762,32.715,-384.766,20.508,49.805,0
1533222978.784,29.785,29.785,-470.215,17.578,2.441,0
1533222978.788,43.457,31.738,-251.465,20.508,-52.246,0
1533222978.792,50.293,32.715,-148.926,27.344,36.133,0
1533222978.796,49.805,30.762,-229.492,26.855,19.043,0
1533222978.800,41.504,32.227,-225.098,22.949,7.324,0
1533222978.804,28.320,34.668,-433.105,18.555,67.383,0
1533222978.808,36.133,39.551,-353.516,19.531,2.441,0
1533222978.812,48.828,39.551,-39.062,20.020,41.016,0
1533222978.816,39.062,32.227,-34.180,20.020,72.266,0
1533222978.820,29.785,32.227,-353.027,22.949,-13.184,0
1533222978.823,25.391,36.133,-627.441,18.066,-8.789,0
1533222978.827,24.414,36.621,-397.949,15.625,22.949,0
1533222978.831,36.133,34.180,-108.398,23.438,20.508,0
1533222978.835,37.109,31.250,-52.734,25.391,45.410,0
1533222978.839,27.344,31.250,-214.844,23.438,77.148,0
1533222978.843,23.438,33.203,-506.836,26.367,62.988,0
1533222978.847,32.715,38.086,-387.207,25.879,60.547,0
1533222978.851,43.457,38.574,-248.535,22.949,35.645,0
1533222978.855,46.387,34.668,-163.574,26.855,20.996,0
1533222978.859,41.016,38.086,-268.555,27.344,55.664,0
1533222978.863,36.621,41.504,-635.254,23.926,-21.484,0
1533222978.866,38.086,38.574,-443.848,21.973,-12.207,0
1533222978.870,50.293,37.598,-187.500,18.555,68.848,0
1533222978.874,49.316,34.180,-325.195,10.254,28.320,0
1533222978.878,27.832,32.715,-321.289,10.742,8.789,0
1533222978.882,13.672,34.668,-342.285,12.207,15.137,0
1533222978.886,19.043,33.691,-396.484,6.836,-12.207,0
1533222978.890,33.691,33.691,-217.285,8.789,0.977,0
1533222978.894,42.480,31.738,-102.539,7.324,4.883,0
1533222978.898,35.645,31.250,-136.230,8.789,43.945,0
1533222978.902,21.973,32.227,-411.621,13.672,83.008,0
1533222978.906,21.973,35.645,-479.980,10.254,24.414,0
1533222978.909,26.855,34.668,-213.379,10.254,25.391,0
1533222978.913,33.203,32.715,-35.645,11.230,58.105,0
1533222978.917,32.715,34.668,-190.918,12.207,56.152,0
1533222978.921,23.438,33.203,-476.562,13.672,63.477,0
1533222978.925,33.691,36.621,-403.320,19.043,60.547,0
1533222978.929,42.969,34.668,-112.305,24.414,-5.371,0
1533222978.933,46.387,33.691,-121.582,22.461,-10.254,0
1533222978.937,43.457,40.039,-147.949,19.531,14.160,0
1533222978.941,28.320,36.621,-212.402,17.578,-37.598,0
1533222978.945,25.391,33.203,-317.871,18.066,2.441,0
1533222978.948,35.156,30.762,-111.328,18.555,21.484,0
1533222978.952,35.645,33.203,65.430,20.996,9.766,0
1533222978.956,26.367,36.621,27.832,22.949,16.602,0
1533222978.960,18.555,37.109,-245.117,19.531,-3.906,0
1533222978.964,19.043,43.945,-447.754,16.602,12.207,0
1533222978.968,25.879,38.574,-125.977,14.648,52.246,0
1533222978.972,27.832,35.156,17.090,18.555,22.949,0
1533222978.976,20.996,35.156,-71.777,20.996,-28.320,0
1533222978.980,9.766,33.691,-26.367,18.066,25.391,0
1533222978.984,3.418,33.203,-241.699,20.508,-4.883,0
1533222978.988,14.160,30.762,-147.461,19.043,-36.133,0
1533222978.991,24.902,33.691,118.164,18.555,9.766,0
1533222978.995,19.043,36.133,168.457,21.973,25.879,0
1533222978.999,10.742,32.715,-76.172,20.508,15.625,0
1533222979.003,6.348,30.273,-304.199,14.648,-20.020,0
1533222979.007,15.625,33.203,-111.328,11.230,-7.812,0
1533222979.011,28.320,34.180,62.012,17.090,35.645,0
1533222979.015,29.785,31.250,153.809,17.578,75.684,0
1533222979.019,19.043,30.762,47.363,11.230,72.266,0
1533222979.023,9.277,29.297,-269.043,10.742,-1.465,0
1533222979.027,15.625,33.203,-121.582,15.137,3.906,0
1533222979.031,29.785,35.645,86.914,17.578,55.176,0
1533222979.034,26.367,34.668,147.461,15.137,34.668,0
1533222979.038,8.789,30.273,71.289,8.789,25.879,0
1533222979.042,-0.977,29.297,-231.934,1.953,-6.836,0
1533222979.046,1.465,31.250,-125.000,5.371,-4.883,0
1533222979.050,18.066,26.855,119.141,9.277,40.527,0
1533222979.054,26.367,27.344,137.695,9.277,41.016,0
1533222979.058,16.602,30.273,54.199,12.207,70.801,0
1533222979.062,7.812,31.250,-212.891,17.090,40.039,0
1533222979.066,13.184,32.715,-90.820,15.137,9.766,0
1533222979.070,27.832,31.738,228.027,11.719,28.809,0
1533222979.073,17.578,35.156,131.836,20.020,39.062,0
1533222979.077,10.742,40.039,54.688,19.531,-2.441,0
1533222979.081,10.254,34.668,4.395,11.230,-15.625,0
1533222979.085,0.000,30.762,-112.305,13.184,-17.578,0
1533222979.089,14.648,32.715,126.953,17.090,-4.883,0
1533222979.093,28.809,33.203,424.805,16.602,91.309,0
1533222979.097,22.461,34.668,274.414,14.160,65.430,0
1533222979.101,3.418,36.621,-54.688,7.812,9.766,0
1533222979.105,4.883,34.668,-139.160,6.348,27.344,0
1533222979.109,23.926,30.273,106.445,12.695,15.625,0
1533222979.113,25.391,29.785,418.457,17.090,34.668,0
1533222979.116,18.066,36.621,391.602,20.020,5.859,0
1533222979.120,20.508,39.062,109.863,21.484,-22.461,0
1533222979.124,25.879,35.645,65.918,22.949,51.758,0
1533222979.128,23.926,32.715,312.988,19.531,74.707,0
1533222979.132,21.484,27.832,443.359,20.996,43.457,0
1533222979.136,24.902,26.855,423.828,24.902,33.203,0
1533222979.140,21.973,28.809,250.977,21.484,77.637,0
1533222979.144,17.090,30.273,32.227,18.555,17.578,0
1533222979.148,20.508,33.691,373.535,17.578,30.762,0
1533222979.152,33.203,33.691,517.090,19.531,41.992,0
1533222979.156,31.250,28.809,306.641,21.973,8.789,0
1533222979.159,16.602,26.367,401.855,23.926,78.613,0
1533222979.163,20.020,29.785,379.883,23.926,45.898,0
1533222979.167,24.414,29.297,461.426,28.320,-9.766,0
1533222979.171,26.367,28.809,642.090,30.273,-33.691,0
1533222979.175,26.367,28.320,687.988,29.297,12.695,0
1533222979.179,20.508,27.344,504.883,28.320,64.941,0
1533222979.183,20.996,29.785,290.527,22.949,40.039,0
1533222979.187,24.902,30.273,436.523,20.508,-14.160,0
1533222979.191,16.602,29.785,677.246,25.391,-9.766,0
1533222979.195,15.625,26.367,734.863,27.344,25.879,0
1533222979.198,14.160,26.367,470.703,23.438,-24.902,0
1533222979.202,7.812,28.320,274.414,22.949,-42.480,0
1533222979.206,16.113,28.809,522.461,26.855,1.953,0
1533222979.210,30.762,31.250,793.457,37.598,-20.020,0
1533222979.214,32.715,32.715,743.652,35.645,-24.414,0
1533222979.218,17.090,34.180,709.473,28.320,26.367,0
1533222979.222,9.277,33.203,564.941,31.738,12.695,0
1533222979.226,24.414,34.668,548.340,30.762,-35.156,0
1533222979.230,39.551,37.598,787.598,25.391,-22.461,0
1533222979.234,42.480,36.133,903.809,28.809,63.965,0
1533222979.238,32.715,34.180,743.164,31.738,46.387,0
1533222979.241,19.531,34.180,461.914,26.855,3.906,0
1533222979.245,29.297,36.133,458.984,23.926,24.902,0
1533222979.249,41.016,36.621,769.043,29.297,9.766,0
1533222979.253,40.039,36.621,785.156,30.273,-11.230,0
1533222979.257,39.062,39.062,705.078,25.879,25.879,0
1533222979.261,28.320,39.062,688.965,21.484,53.711,0
1533222979.265,25.879,37.109,609.863,22.949,39.062,0
1533222979.269,39.551,35.156,820.312,28.320,42.480,0
1533222979.273,46.387,32.715,930.664,26.855,58.594,0
1533222979.277,44.922,33.691,782.715,28.809,47.363,0
1533222979.280,26.855,32.227,509.277,25.879,25.879,0
1533222979.284,26.367,33.203,458.984,22.949,7.812,0
1533222979.288,37.598,32.715,749.512,23.438,30.762,0
1533222979.292,33.203,35.156,783.691,18.555,78.613,0
1533222979.296,26.855,40.039,694.336,19.043,94.238,0
1533222979.300,16.113,37.598,580.078,15.625,63.477,0
1533222979.304,14.648,35.645,420.410,14.160,-9.766,0
1533222979.308,25.879,34.668,676.270,18.555,7.324,0
1533222979.312,33.203,33.691,772.949,13.184,36.621,0
1533222979.316,22.461,33.691,699.219,11.719,54.688,0
1533222979.320,16.602,33.691,510.742,15.625,37.109,0
1533222979.323,21.484,31.738,334.961,9.277,-8.301,0
1533222979.327,24.414,32.715,555.176,7.812,-11.719,0
1533222979.331,37.598,36.621,752.930,20.020,20.996,0
1533222979.335,38.574,36.621,700.684,24.414,60.059,0
1533222979.339,28.320,34.668,350.098,26.855,12.207,0
1533222979.343,29.785,35.156,212.402,24.902,27.344,0
1533222979.347,35.156,35.645,542.969,22.461,52.246,0
1533222979.351,37.109,30.273,687.500,21.484,38.574,0
1533222979.355,31.250,31.738,606.445,20.996,26.367,0
1533222979.359,22.461,34.668,437.988,21.484,-0.977,0
1533222979.363,18.555,34.668,266.113,20.996,37.109,0
1533222979.366,22.949,32.227,433.105,22.949,74.707,0
1533222979.370,27.832,29.785,497.559,25.391,-0.488,0
1533222979.374,25.879,32.715,456.055,26.855,-34.668,0
1533222979.378,20.020,31.738,495.117,26.367,46.875,0
1533222979.382,6.348,26.367,314.941,25.879,69.336,0
1533222979.386,11.719,24.902,272.949,21.973,54.199,0
1533222979.390,33.203,31.738,466.797,22.461,0.977,0
1533222979.394,35.645,37.109,512.695,23.438,14.160,0
1533222979.398,21.484,34.668,458.984,23.438,73.730,0
1533222979.402,11.719,31.738,301.758,23.926,48.828,0
1533222979.405,13.672,32.715,294.434,17.090,19.043,0
1533222979.409,24.414,30.273,457.520,16.602,-24.902,0
1533222979.413,23.926,28.809,532.715,22.949,-19.043,0
1533222979.417,14.160,31.738,440.918,16.113,27.832,0
1533222979.421,4.395,34.180,188.477,9.277,45.898,0
1533222979.425,9.277,33.203,186.035,10.742,66.406,0
1533222979.429,21.484,31.738,419.922,13.184,16.602,0
1533222979.433,21.484,33.203,511.719,19.043,-3.906,0
1533222979.437,17.578,31.250,395.508,18.555,104.980,0
1533222979.441,11.719,31.250,160.645,15.625,68.359,0
1533222979.445,12.207,31.738,108.398,16.113,-27.832,0
1533222979.448,30.762,28.809,443.359,20.020,-7.812,0
1533222979.452,38.574,27.832,422.363,20.020,34.668,0
1533222979.456,29.297,32.715,217.773,21.484,2.441,0
1533222979.460,17.578,36.621,193.359,20.508,-23.926,0
1533222979.464,20.508,36.133,140.625,14.648,-10.254,0
1533222979.468,33.691,35.156,386.719,18.066,47.363,0
1533222979.472,29.785,31.250,505.859,19.043,62.012,0
1533222979.476,24.902,29.297,315.430,17.090,1.953,0
1533222979.480,20.996,29.785,24.902,19.043,45.410,0
1533222979.484,15.137,32.715,-51.758,17.578,57.129,0
1533222979.488,23.926,34.180,288.086,16.113,6.348,0
1533222979.491,39.551,30.273,461.914,20.996,39.551,0
1533222979.495,32.715,30.273,322.754,20.508,67.383,0
1533222979.499,15.137,33.203,59.570,13.184,2.930,0
1533222979.503,8.789,33.203,-43.945,12.207,34.668,0
1533222979.507,18.555,33.203,198.730,11.719,39.551,0
1533222979.511,25.879,35.645,243.164,11.719,-3.906,0
1533222979.515,13.184,36.133,124.512,14.160,31.738,0
1533222979.519,-0.977,31.738,62.012,9.277,4.395,0
1533222979.523,6.836,31.738,-63.477,10.742,20.020,0
1533222979.527,18.555,36.133,32.227,18.066,33.203,0
1533222979.530,24.902,33.203,180.176,17.090,-8.789,0
1533222979.534,30.762,29.297,158.691,20.020,41.504,0
1533222979.538,21.484,33.203,8.789,20.508,23.926,0
1533222979.542,19.043,33.691,-133.789,19.531,-41.016,0
1533222979.546,18.555,29.785,56.152,14.648,-12.695,0
1533222979.550,15.625,29.785,228.027,16.113,4.883,0
1533222979.554,20.996,33.691,175.293,25.391,16.602,0
1533222979.558,23.926,33.691,-33.691,27.832,27.344,0
1533222979.562,20.508,31.250,-277.832,27.832,-3.418,0
1533222979.566,22.461,33.691,-112.793,20.508,11.230,0
1533222979.570,33.203,34.668,168.457,22.461,76.660,0
1533222979.573,31.738,33.203,85.938,27.832,73.242,0
1533222979.577,23.926,36.133,-173.340,27.832,20.020,0
1533222979.581,16.113,38.086,-307.617,21.973,-16.113,0
1533222979.585,19.531,38.086,-124.023,17.090,32.227,0
1533222979.589,27.832,38.086,100.586,16.113,55.176,0
1533222979.593,28.809,34.180,77.148,15.625,49.805,0
1533222979.597,20.020,32.715,-133.301,17.090,32.227,0
1533222979.601,5.859,32.227,-316.895,14.160,-13.184,0
1533222979.605,6.348,30.762,-218.750,10.742,4.395,0
1533222979.609,23.438,31.738,57.129,11.719,25.879,0
1533222979.613,35.645,36.133,-5.371,10.254,65.430,0
1533222979.616,20.508,34.180,-209.961,6.836,30.762,0
1533222979.620,11.719,28.809,-321.777,7.324,35.156,0
1533222979.624,17.090,28.320,-292.480,7.812,97.168,0
1533222979.628,32.715,30.762,47.363,12.207,41.016,0
1533222979.632,37.598,30.273,-27.832,17.578,0.977,0
1533222979.636,25.391,30.762,-232.422,14.648,2.930,0
1533222979.640,11.230,32.715,-219.727,11.719,19.043,0
1533222979.644,15.137,34.180,-272.461,15.137,20.020,0
1533222979.648,29.297,32.227,-27.344,17.090,58.105,0
1533222979.652,38.574,29.297,61.035,24.902,82.520,0
1533222979.655,43.945,28.809,-148.926,28.809,34.668,0
1533222979.659,28.809,29.297,-343.262,23.926,-11.230,0
1533222979.663,21.484,31.250,-398.926,26.367,-7.324,0
1533222979.667,37.109,28.320,-191.895,34.180,18.066,0
1533222979.671,50.781,29.297,-93.750,29.785,26.855,0
1533222979.675,48.828,34.180,-215.820,25.879,-5.371,0
1533222979.679,39.551,35.645,-238.281,29.297,-1.465,0
1533222979.683,31.738,36.621,-297.363,25.391,34.668,0
1533222979.687,32.227,36.133,-143.555,23.438,23.926,0
1533222979.691,43.945,38.086,17.090,25.391,46.875,0
1533222979.695,41.016,37.109,-83.496,18.066,47.363,0
1533222979.698,26.855,34.668,-300.781,13.672,37.109,0
1533222979.702,17.090,31.738,-453.125,12.207,18.066,0
1533222979.706,24.902,32.715,-216.797,7.812,41.992,0
1533222979.710,33.203,34.668,-52.734,13.184,44.434,0
1533222979.714,32.227,35.156,-139.648,17.578,23.438,0
1533222979.718,29.297,34.180,-315.918,13.184,44.434,0
1533222979.722,22.949,35.156,-411.621,12.207,41.992,0
1533222979.726,27.344,37.109,-189.941,15.137,75.195,0
1533222979.730,36.621,36.133,-32.715,13.672,42.480,0
1533222979.734,36.621,41.016,-240.723,15.137,13.672,0
1533222979.738,26.367,43.945,-325.195,15.625,35.645,0
1533222979.741,23.926,43.457,-335.449,16.602,31.250,0
1533222979.745,34.180,41.504,-270.508,20.508,26.855,0
1533222979.749,45.410,38.086,-55.664,21.484,8.789,0
1533222979.753,40.527,36.621,-64.941,24.414,-1.953,0
1533222979.757,31.738,39.551,-224.121,25.879,75.684,0
1533222979.761,30.762,41.504,-523.926,23.926,79.590,0
1533222979.765,25.879,40.039,-466.309,22.949,40.039,0
1533222979.769,30.273,39.062,-84.961,25.391,64.941,0
1533222979.773,36.621,37.598,-143.066,27.832,59.570,0
1533222979.777,32.227,38.086,-334.961,27.832,36.133,0
1533222979.780,29.297,41.016,-368.652,28.809,19.531,0
1533222979.784,30.273,41.016,-371.582,24.414,-0.977,0
1533222979.788,36.621,38.086,-106.934,17.578,26.855,0
1533222979.792,30.762,36.133,-77.148,22.461,8.789,0
1533222979.796,22.461,36.133,-296.875,25.879,-22.949,0
1533222979.800,18.555,40.527,-455.566,18.066,63.477,0
1533222979.804,14.160,40.527,-483.887,14.648,82.031,0
1533222979.808,20.020,35.156,-299.316,20.508,16.602,0
1533222979.812,24.414,36.133,-292.969,20.508,-28.809,0
1533222979.816,18.066,38.086,-363.281,17.578,11.230,0
1533222979.820,15.625,39.062,-394.043,22.949,46.387,0
1533222979.823,11.719,39.062,-474.121,29.297,28.809,0
1533222979.827,10.254,37.109,-208.984,27.832,-26.855,0
1533222979.831,18.555,35.645,-77.637,24.414,-33.691,0
1533222979.835,14.648,34.180,-223.633,27.832,11.230,0
1533222979.839,7.812,34.668,-452.637,25.879,13.184,0
1533222979.843,11.719,32.715,-526.367,19.043,0.000,0
1533222979.847,12.695,28.809,-234.375,16.113,22.461,0
1533222979.851,21.484,29.297,-114.258,21.973,12.207,0
1533222979.855,20.020,30.273,-284.668,24.414,8.789,0
1533222979.859,3.418,29.297,-508.301,18.555,9.277,0
1533222979.863,-3.906,25.391,-536.133,17.090,-1.953,0
1533222979.866,5.371,21.973,-146.484,14.648,51.758,0
1533222979.870,15.625,20.996,-51.758,14.648,39.062,0
1533222979.874,3.418,20.020,-339.844,17.090,-7.812,0
1533222979.878,-5.371,23.438,-431.152,19.043,20.996,0
1533222979.882,-1.953,22.949,-462.402,18.555,5.371,0
1533222979.886,3.418,23.926,-235.840,21.484,-12.207,0
1533222979.890,16.602,24.902,-26.367,25.391,27.832,0
1533222979.894,18.555,23.438,-135.254,23.926,53.711,0
1533222979.898,8.789,25.391,-399.414,20.996,-2.930,0
1533222979.902,2.930,27.344,-631.348,21.484,-33.691,0
1533222979.905,12.207,28.809,-407.227,29.297,5.859,0
1533222979.909,21.484,27.344,-13.672,37.109,34.668,0
1533222979.913,18.066,24.902,-204.590,38.574,54.199,0
1533222979.917,9.766,26.855,-404.297,37.598,68.359,0
1533222979.921,14.648,25.391,-406.738,40.527,49.316,0
1533222979.925,26.367,23.926,-375.488,40.527,-6.836,0
1533222979.929,32.227,24.414,-128.906,39.551,-45.410,0
1533222979.933,29.297,21.973,-176.270,41.504,-18.555,0
1533222979.937,24.414,22.949,-398.438,40.039,11.230,0
1533222979.941,25.391,22.461,-487.305,35.156,29.297,0
1533222979.945,31.250,21.484,-400.391,36.133,20.996,0
1533222979.948,44.434,20.020,-216.309,41.992,19.043,0
1533222979.952,41.016,24.414,-154.297,41.016,36.133,0
1533222979.956,32.715,25.879,-263.672,37.109,31.738,0
1533222979.960,25.879,23.926,-478.027,36.133,22.949,0
1533222979.964,33.203,28.320,-437.988,39.062,34.180,0
1533222979.968,41.016,27.344,-100.098,41.992,54.199,0
1533222979.972,35.645,27.832,-183.105,40.527,42.480,0
1533222979.976,36.133,32.227,-432.617,38.574,-3.418,0
1533222979.980,28.320,29.785,-388.672,37.109,13.672,0
1533222979.984,21.973,27.344,-371.582,35.645,17.578,0
1533222979.987,35.645,28.809,-102.539,35.645,28.809,0
1533222979.991,47.363,33.203,21.973,40.039,100.098,0
1533222979.995,38.086,34.180,-252.930,41.016,75.195,0
1533222979.999,28.809,32.227,-443.359,35.156,42.480,0
1533222980.003,30.762,32.715,-343.262,33.203,42.480,0
1533222980.007,40.527,32.715,-40.039,37.598,22.461,0
1533222980.011,46.875,31.738,-27.344,33.203,-8.789,0
1533222980.015,40.039,31.738,-305.176,18.555,-50.293,0
1533222980.019,30.762,33.691,-329.102,14.648,-85.449,0
1533222980.023,32.227,32.715,-236.816,18.555,-21.973,0
1533222980.027,41.504,34.180,-0.488,24.414,29.297,0
1533222980.030,45.410,38.086,128.418,29.785,57.617,0
1533222980.034,33.203,37.598,-38.574,29.785,44.922,0
1533222980.038,18.555,36.621,-319.336,31.738,-62.988,0
1533222980.042,24.414,39.062,-416.016,31.738,-32.227,0
1533222980.046,39.062,40.527,-151.367,24.902,-11.719,0
1533222980.050,43.457,41.016,102.051,31.738,-31.738,0
1533222980.054,36.133,36.621,-18.066,31.738,30.762,0
1533222980.058,25.879,34.668,-130.371,25.879,69.824,0
1533222980.062,30.762,37.109,-150.391,27.344,68.848,0
1533222980.066,36.133,36.133,-18.066,26.855,67.871,0
1533222980.070,45.898,37.598,170.410,30.273,68.848,0
1533222980.073,46.875,37.109,97.168,38.086,117.188,0
1533222980.077,29.785,37.109,-152.344,34.668,96.191,0
1533222980.081,23.926,38.086,-333.496,24.902,12.695,0
1533222980.085,38.574,36.621,-101.074,25.879,50.781,0
1533222980.089,45.898,34.180,100.586,28.320,23.438,0
1533222980.093,35.645,35.156,-39.062,25.391,41.504,0
1533222980.097,22.949,32.715,-188.965,22.461,23.926,0
1533222980.101,16.602,31.738,-203.125,22.461,-70.312,0
1533222980.105,22.461,31.250,-68.848,19.043,-9.277,0
1533222980.109,31.738,28.320,202.637,21.484,-3.906,0
1533222980.112,34.180,30.273,209.961,28.320,10.742,0
1533222980.116,22.949,29.785,-54.199,25.879,18.555,0
1533222980.120,11.719,25.879,-263.184,21.484,5.371,0
1533222980.124,19.043,26.855,-179.199,20.508,-30.273,0
1533222980.128,33.203,28.320,148.438,21.973,-22.949,0
1533222980.132,43.457,29.297,242.676,26.855,78.613,0
1533222980.136,36.133,26.855,-99.121,27.344,100.098,0
1533222980.140,18.066,26.855,-340.820,20.996,33.203,0
1533222980.144,22.949,30.762,-138.184,20.020,28.320,0
1533222980.148,40.527,29.297,201.172,27.344,21.973,0
1533222980.152,46.875,26.855,101.074,33.203,9.277,0
1533222980.155,34.668,32.227,-145.996,29.785,37.109,0
1533222980.159,26.367,36.133,-170.410,26.367,59.082,0
1533222980.163,26.855,32.227,-187.500,27.832,-19.531,0
1533222980.167,37.598,31.250,170.898,26.367,-23.438,0
1533222980.171,39.062,34.180,258.301,29.785,34.180,0
1533222980.175,28.320,32.715,12.695,30.762,31.250,0
1533222980.179,20.996,31.738,-216.797,26.367,15.137,0
1533222980.183,20.020,32.715,-320.801,22.949,-3.906,0
1533222980.187,34.668,31.738,39.551,24.902,29.297,0
1533222980.191,43.457,30.762,206.543,29.785,36.621,0
1533222980.195,31.250,30.762,10.742,24.414,59.082,0
1533222980.198,15.625,31.738,-158.203,20.508,68.848,0
1533222980.202,12.695,30.762,-265.137,19.531,5.371,0
1533222980.206,17.090,30.273,38.574,15.625,35.645,0
1533222980.210,22.949,34.180,139.160,21.484,24.414,0
1533222980.214,22.461,38.086,-45.898,25.391,40.039,0
1533222980.218,13.672,35.645,-238.770,22.461,56.152,0
1533222980.222,12.695,37.598,-290.527,18.066,4.883,0
1533222980.226,21.484,38.086,8.789,22.461,46.875,0
1533222980.230,31.738,35.156,113.770,28.320,16.113,0
1533222980.234,25.879,37.109,-217.285,23.438,-39.551,0
1533222980.237,9.766,36.133,-365.723,16.113,-51.758,0
1533222980.241,11.230,34.668,-129.395,18.066,-32.715,0
1533222980.245,26.367,36.133,70.312,20.996,-6.836,0
1533222980.249,27.344,37.109,195.801,18.066,-13.672,0
1533222980.253,24.902,38.086,55.176,16.113,43.457,0
1533222980.257,28.320,41.504,-183.105,17.090,58.594,0
1533222980.261,24.902,40.527,-290.039,15.625,47.363,0
1533222980.265,30.762,40.527,-119.141,16.602,71.289,0
1533222980.269,45.898,41.992,109.863,19.531,32.715,0
1533222980.273,41.504,35.645,-14.648,19.531,-1.465,0
1533222980.277,26.855,32.227,-292.969,12.207,-5.859,0
1533222980.280,25.391,32.227,-386.719,6.348,14.160,0
1533222980.284,36.133,34.180,-153.809,10.254,22.949,0
1533222980.288,44.922,37.109,195.312,17.578,10.254,0
1533222980.292,34.668,36.133,148.438,18.066,58.105,0
1533222980.296,18.066,34.180,-148.438,14.648,37.109,0
1533222980.300,11.719,30.762,-310.547,11.230,-16.602,0
1533222980.304,21.484,30.273,-161.133,13.184,22.461,0
1533222980.308,34.668,33.691,136.230,15.137,46.875,0
1533222980.312,27.832,37.109,90.820,11.719,44.922,0
1533222980.316,21.484,37.598,-174.805,12.695,-23.926,0
1533222980.320,17.578,33.203,-268.066,9.766,-16.113,0
1533222980.323,11.230,28.809,-227.051,15.625,62.012,0
1533222980.327,21.973,27.832,41.992,19.043,46.875,0
1533222980.331,29.297,32.227,147.461,16.113,63.477,0
1533222980.335,21.973,33.691,-87.891,20.020,53.223,0
1533222980.339,16.113,28.809,-196.289,13.672,5.859,0
1533222980.343,33.203,30.273,-145.020,8.789,-10.254,0
1533222980.347,40.039,32.227,150.391,18.555,12.207,0
1533222980.351,36.133,29.297,189.941,25.391,32.227,0
1533222980.355,33.691,27.832,-240.234,20.508,20.020,0
1533222980.359,28.320,29.297,-223.145,17.578,77.148,0
1533222980.362,32.227,30.273,-32.227,20.020,44.922,0
1533222980.366,39.551,27.832,148.926,22.461,-2.441,0
1533222980.370,43.945,29.297,187.500,25.879,9.766,0
1533222980.374,36.621,27.344,-102.051,20.020,2.441,0
1533222980.378,29.297,29.785,-161.133,13.672,-50.293,0
1533222980.382,32.227,33.203,-0.977,16.113,5.371,0
1533222980.386,48.828,31.250,167.969,22.461,68.848,0
1533222980.390,57.129,30.762,270.508,26.367,68.848,0
1533222980.394,46.875,32.227,121.582,25.879,56.641,0
1533222980.398,40.039,33.691,-141.602,22.949,13.184,0
1533222980.402,35.156,31.738,-205.078,18.066,-2.441,0
1533222980.405,44.922,35.156,60.059,17.090,13.672,0
1533222980.409,56.641,37.109,263.672,20.020,15.137,0
1533222980.413,44.922,32.715,136.719,19.531,39.551,0
1533222980.417,34.180,31.738,-183.594,18.555,43.945,0
1533222980.421,38.574,32.227,-248.535,20.020,27.832,0
1533222980.425,41.992,30.762,68.848,20.996,-15.137,0
1533222980.429,43.457,33.203,308.594,16.113,-16.113,0
1533222980.433,41.016,35.156,163.574,15.137,8.301,0
1533222980.437,29.297,36.133,-78.125,18.066,-1.465,0
1533222980.441,22.949,37.598,-184.082,13.672,-15.625,0
1533222980.445,31.738,37.109,-36.133,11.719,-0.488,0
1533222980.448,43.945,35.156,331.055,13.672,41.504,0
1533222980.452,43.457,37.598,113.770,15.625,34.668,0
1533222980.456,33.203,37.598,-201.172,16.602,-26.855,0
1533222980.460,25.391,32.715,-104.004,16.602,-19.043,0
1533222980.464,28.320,33.203,-53.711,13.672,-15.625,0
1533222980.468,41.504,34.668,233.398,13.672,-4.883,0
1533222980.472,41.016,35.645,176.270,10.742,36.621,0
1533222980.476,24.902,39.551,-115.234,9.766,35.156,0
1533222980.480,23.438,37.598,-117.676,8.301,-43.457,0
1533222980.484,32.715,34.668,40.039,4.883,-27.344,0
1533222980.487,33.203,36.621,323.242,11.230,41.992,0
1533222980.491,25.391,32.715,263.672,14.160,25.391,0
1533222980.495,19.043,31.250,36.133,13.184,52.246,0
1533222980.499,9.277,33.691,-208.496,12.695,15.625,0
1533222980.503,9.766,36.621,-105.469,6.836,7.812,0
1533222980.507,26.367,36.621,302.734,5.371,53.711,0
1533222980.511,29.297,36.133,201.172,11.230,54.688,0
1533222980.515,20.020,39.551,-79.102,12.207,85.938,0
1533222980.519,17.090,39.551,-71.777,6.836,57.129,0
1533222980.523,20.996,39.062,40.527,9.766,41.992,0
1533222980.527,29.785,35.645,254.883,15.625,3.418,0
1533222980.530,32.227,31.250,278.320,18.555,-35.156,0
1533222980.534,26.367,34.180,97.168,20.508,44.434,0
1533222980.538,11.230,36.133,-103.516,13.184,26.367,0
1533222980.542,12.207,37.109,-54.199,3.906,70.801,0
1533222980.546,24.902,38.086,195.312,7.812,57.129,0
1533222980.550,20.996,33.691,276.855,6.348,1.465,0
1533222980.554,11.230,31.738,110.352,7.324,37.598,0
1533222980.558,5.859,34.668,-168.945,11.230,23.926,0
1533222980.562,10.742,36.133,-184.570,13.184,51.758,0
1533222980.566,23.438,37.109,187.988,18.555,35.645,0
1533222980.570,28.809,40.039,373.535,18.066,-17.578,0
1533222980.573,28.809,40.527,56.641,20.996,81.055,0
1533222980.577,27.832,38.574,-143.066,22.461,89.355,0
1533222980.581,15.625,36.621,-34.180,17.578,17.578,0
1533222980.585,16.602,37.109,179.688,20.020,27.344,0
1533222980.589,19.531,35.156,332.520,27.832,23.926,0
1533222980.593,5.371,32.227,161.133,31.738,10.742,0
1533222980.597,0.488,34.668,-49.316,25.879,26.855,0
1533222980.601,5.371,33.691,-160.156,19.043,-5.371,0
1533222980.605,16.602,30.273,-12.695,22.949,-40.527,0
1533222980.609,24.414,29.297,285.645,28.320,-0.488,0
1533222980.612,17.578,29.785,103.027,28.809,6.836,0
1533222980.616,7.812,32.715,-114.746,26.855,-3.906,0
1533222980.620,7.812,32.227,1.465,27.344,-32.715,0
1533222980.624,22.949,32.227,154.785,29.297,-51.758,0
1533222980.628,31.250,35.156,387.695,33.203,-20.020,0
1533222980.632,26.855,35.156,294.922,34.668,-5.371,0
1533222980.636,21.973,35.645,26.367,34.180,-9.277,0
1533222980.640,15.625,33.203,-55.664,36.133,20.020,0
1533222980.644,17.578,34.668,140.625,38.574,79.590,0
1533222980.648,25.391,34.180,370.117,41.504,38.086,0
1533222980.652,20.996,31.250,260.254,41.016,38.086,0
1533222980.655,8.789,30.762,11.230,39.551,36.133,0
1533222980.659,1.953,27.832,18.066,32.227,38.574,0
1533222980.663,8.789,28.320,154.785,27.832,44.922,0
1533222980.667,22.949,30.762,387.695,30.273,20.020,0
1533222980.671,19.043,26.855,321.777,29.785,88.379,0
1533222980.675,2.441,25.391,23.438,29.297,67.871,0
1533222980.679,-5.371,22.461,43.945,28.809,17.578,0
1533222980.683,2.441,20.996,207.031,29.297,58.105,0
1533222980.687,19.531,24.902,437.988,38.086,61.523,0
1533222980.691,23.926,22.461,403.809,46.387,2.930,0
1533222980.695,12.207,24.902,126.953,36.621,-50.781,0
1533222980.698,6.348,30.273,-30.273,28.320,6.836,0
1533222980.702,16.113,29.297,148.438,35.156,144.043,0
1533222980.706,28.809,30.273,479.492,40.039,94.727,0
1533222980.710,34.668,31.738,453.125,39.062,5.371,0
1533222980.714,28.809,32.227,81.055,35.156,18.555,0
1533222980.718,20.508,33.203,35.156,32.715,13.184,0
1533222980.722,21.484,34.180,216.797,32.715,15.625,0
1533222980.726,29.297,37.598,396.484,32.715,30.273,0
1533222980.730,35.645,35.156,502.930,35.156,63.965,0
1533222980.734,29.785,30.273,264.648,31.738,45.898,0
1533222980.737,10.742,33.203,49.805,27.832,31.738,0
1533222980.741,13.184,33.203,3.418,31.250,-39.062,0
1533222980.745,23.926,32.715,192.383,32.715,-91.797,0
1533222980.749,25.391,29.785,421.875,34.180,-43.457,0
1533222980.753,24.902,31.250,142.578,34.668,-52.734,0
1533222980.757,14.160,38.574,-22.461,29.297,-60.059,0
1533222980.761,10.742,34.668,197.754,23.926,17.090,0
1533222980.765,22.461,34.180,391.113,25.391,82.520,0
1533222980.769,31.250,39.551,494.629,28.320,59.082,0
1533222980.773,20.020,36.133,295.898,25.391,57.129,0
1533222980.777,12.207,37.109,40.039,23.438,43.457,0
1533222980.780,11.230,39.551,-95.215,21.973,-29.785,0
1533222980.784,16.113,33.691,115.234,18.555,-39.551,0
1533222980.788,28.320,33.691,519.043,26.367,40.039,0
1533222980.792,19.043,33.203,244.629,28.809,80.566,0
1533222980.796,8.789,32.227,-99.609,21.973,20.020,0
1533222980.800,11.230,33.203,49.805,21.973,5.859,0
1533222980.804,19.531,31.250,208.008,25.391,-6.348,0
1533222980.808,27.344,27.832,434.570,25.391,-12.207,0
1533222980.812,22.949,24.414,357.422,23.438,67.871,0
1533222980.816,9.766,25.391,35.645,21.973,49.805,0
1533222980.819,3.418,26.367,-124.023,22.461,-68.359,0
1533222980.823,10.742,24.414,91.797,23.438,-57.617,0
1533222980.827,21.973,24.414,439.453,26.367,38.086,0
1533222980.831,21.973,29.297,312.500,31.250,4.395,0
1533222980.835,11.230,28.809,54.688,26.367,34.668,0
1533222980.839,10.254,28.320,-113.770,20.508,97.656,0
1533222980.843,23.438,31.250,-54.688,24.902,15.625,0
1533222980.847,31.250,27.344,409.668,24.902,5.859,0
1533222980.851,30.762,27.344,355.957,23.438,34.668,0
1533222980.855,21.973,30.762,-66.406,23.926,72.754,0
1533222980.859,8.789,31.250,-36.133,20.508,84.473,0
1533222980.862,13.672,28.320,95.215,18.555,-9.277,0
1533222980.866,37.109,27.344,360.352,19.531,14.648,0
1533222980.870,43.945,30.762,339.355,24.414,18.066,0
1533222980.874,29.785,31.250,71.289,28.809,42.480,0
1533222980.878,20.996,34.668,-76.660,27.832,44.434,0
1533222980.882,26.855,35.645,-38.086,23.438,-5.859,0
1533222980.886,36.621,30.762,168.457,25.391,-32.227,0
1533222980.890,35.645,34.180,273.926,29.297,-16.113,0
1533222980.894,18.555,39.062,102.051,27.832,50.781,0
1533222980.898,6.836,37.598,-87.402,25.879,15.625,0
1533222980.902,11.230,36.133,34.668,27.344,10.742,0
1533222980.905,22.461,35.156,298.828,27.344,43.945,0
1533222980.909,21.484,32.715,354.492,28.320,39.062,0
1533222980.913,10.742,34.180,58.594,26.855,-0.977,0
1533222980.917,10.742,38.574,-109.375,15.625,-13.184,0
1533222980.921,15.137,35.156,-44.434,15.625,12.695,0
1533222980.925,26.367,32.715,229.492,20.020,67.383,0
1533222980.929,36.133,35.156,345.703,17.578,41.504,0
1533222980.933,33.203,35.645,33.203,15.137,0.977,0
